time /s	I /nA	E /V
0.100	-14.224	0.099
0.200	-24.753	0.099
0.300	-33.845	0.099
0.400	-6.852	0.099
0.500	-32.590	0.099
0.600	-54.726	0.099
0.700	-20.682	0.099
0.800	-24.886	0.099
0.900	-20.847	0.099
1.000	-2.226	0.099
1.100	4.586	0.099
1.200	-4.459	0.100
1.300	-25.909	0.099
1.400	-7.104	0.099
1.500	-26.626	0.099
1.600	1.793	0.099
1.700	-17.394	0.099
1.800	-20.130	0.099
1.900	-29.796	0.099
2.000	-29.239	0.099
2.100	-13.214	0.099
2.200	-4.452	0.099
2.300	-22.037	0.099
2.400	-32.219	0.099
2.500	-45.547	0.099
2.600	-22.762	0.099
2.700	-14.982	0.099
2.800	-52.622	0.099
2.900	-28.213	0.099
3.000	-8.071	0.099
3.100	0.375	0.099
3.200	-12.081	0.100
3.300	-21.343	0.099
3.400	-17.343	0.099
3.500	-14.449	0.099
3.600	-34.832	0.099
3.700	-22.706	0.099
3.800	-24.064	0.099
3.900	-19.993	0.099
4.000	-1.314	0.099
4.100	-19.489	0.099
4.200	-14.469	0.099
4.300	-11.166	0.099
4.400	-34.764	0.099
4.500	-21.919	0.099
4.600	-30.898	0.099
4.700	-21.636	0.099
4.800	-29.159	0.099
4.900	-10.464	0.099
5.000	5.612	0.099
5.100	-46.323	0.099
5.200	-36.327	0.099
5.300	-47.215	0.099
5.400	-27.973	0.099
5.500	-33.890	0.099
5.600	-20.574	0.099
5.700	-11.116	0.099
5.800	-7.978	0.099
5.900	-33.407	0.099
6.000	-30.632	0.099
6.100	-29.353	0.099
6.200	-34.674	0.099
6.300	-45.324	0.099
6.400	-17.603	0.099
6.500	-13.836	0.099
6.600	-39.333	0.099
6.700	-16.381	0.099
6.800	-23.169	0.099
6.900	-14.177	0.099
7.000	-31.057	0.099
7.100	19.960	0.099
7.200	-30.318	0.099
7.300	-18.136	0.099
7.400	-25.587	0.099
7.500	-40.706	0.099
7.600	-22.346	0.099
7.700	-9.170	0.099
7.800	-11.974	0.100
7.900	4.102	0.099
8.000	-39.137	0.099
8.100	-31.851	0.099
8.200	-28.713	0.099
8.300	-12.926	0.099
8.400	-7.883	0.099
8.500	-19.721	0.099
8.600	-19.939	0.099
8.700	-11.403	0.099
8.800	-43.217	0.099
8.900	-61.501	0.099
9.000	-20.995	0.099
9.100	0.470	0.099
9.200	-12.394	0.099
9.300	-6.796	0.099
9.400	-19.054	0.099
9.500	-9.404	0.099
9.600	-2.376	0.099
9.700	-28.405	0.099
9.800	-31.699	0.100
9.900	-34.930	0.099
10.000	5.260	0.099
10.100	-15.397	0.099
10.200	-34.140	0.099
10.300	-14.052	0.099
10.400	-30.346	0.099
10.500	-5.289	0.100
10.600	-19.131	0.099
10.700	-14.556	0.099
10.800	-19.702	0.099
10.900	-12.255	0.099
11.000	-7.407	0.099
11.100	-12.928	0.099
11.200	-19.735	0.099
11.300	-18.100	0.099
11.400	-21.030	0.099
11.500	-15.848	0.099
11.600	-59.251	0.099
11.700	12.886	0.099
11.800	-45.940	0.099
11.900	-12.243	0.099
12.000	-25.197	0.099
12.100	-38.220	0.099
12.200	-46.320	0.099
12.300	-23.464	0.099
12.400	-4.805	0.099
12.500	-33.110	0.099
12.600	-5.847	0.099
12.700	-24.965	0.099
12.800	-40.470	0.099
12.900	-15.442	0.099
13.000	-11.632	0.099
13.100	-5.768	0.099
13.200	-21.807	0.099
13.300	-21.040	0.099
13.400	-11.178	0.099
13.500	10.125	0.099
13.600	-12.787	0.099
13.700	-23.074	0.099
13.800	-34.193	0.100
13.900	-33.962	0.099
14.000	-37.681	0.099
14.100	-37.439	0.099
14.200	15.075	0.099
14.300	-0.075	0.099
14.400	-7.165	0.099
14.500	-21.529	0.099
14.600	-8.766	0.099
14.700	-5.695	0.099
14.800	-37.155	0.099
14.900	-25.194	0.099
15.000	-22.709	0.099
15.100	-12.048	0.099
15.200	-15.483	0.099
15.300	-4.487	0.099
15.400	-39.311	0.099
15.500	-6.611	0.099
15.600	-7.145	0.099
15.700	-5.935	0.099
15.800	-5.502	0.099
15.900	-9.700	0.099
16.000	-27.048	0.099
16.100	-23.537	0.099
16.200	-50.340	0.099
16.300	-28.944	0.099
16.400	-3.715	0.099
16.500	-25.581	0.099
16.600	-15.765	0.099
16.700	-16.163	0.099
16.800	-42.821	0.099
16.900	-29.314	0.099
17.000	-30.015	0.099
17.100	-35.814	0.099
17.200	-2.165	0.099
17.300	-7.576	0.099
17.400	-14.777	0.099
17.500	-21.585	0.099
17.600	-16.741	0.099
17.700	-25.538	0.099
17.800	-25.565	0.099
17.900	-47.985	0.099
18.000	-15.030	0.099
18.100	-18.360	0.099
18.200	-32.887	0.099
18.300	-25.835	0.099
18.400	-1.795	0.099
18.500	-25.047	0.099
18.600	-7.975	0.099
18.700	-28.842	0.099
18.800	-18.930	0.099
18.900	3.580	0.099
19.000	-16.237	0.099
19.100	-10.608	0.099
19.200	-23.726	0.099
19.300	2.381	0.099
19.400	-21.258	0.099
19.500	-8.498	0.099
19.600	-44.388	0.099
19.700	16.459	0.099
19.800	-34.957	0.099
19.900	-30.998	0.099
20.000	-9.758	0.099
20.100	0.333	0.099
20.200	-33.941	0.099
20.300	-11.576	0.099
20.400	-38.212	0.099
20.500	-10.610	0.099
20.600	-30.139	0.099
20.700	-32.979	0.099
20.800	-42.394	0.099
20.900	-16.565	0.099
21.000	-23.093	0.099
21.100	-11.375	0.099
21.200	-5.458	0.099
21.300	-18.638	0.099
21.400	-14.218	0.099
21.500	-21.193	0.099
21.600	-35.443	0.099
21.700	-22.927	0.099
21.800	-0.980	0.099
21.900	-35.374	0.099
22.000	6.396	0.099
22.100	-19.435	0.099
22.200	-8.371	0.099
22.300	-30.857	0.099
22.400	-9.272	0.099
22.500	-5.599	0.099
22.600	-16.330	0.099
22.700	-43.755	0.099
22.800	-17.596	0.099
22.900	-25.640	0.099
23.000	-22.502	0.099
23.100	-31.732	0.099
23.200	-13.994	0.099
23.300	-15.726	0.099
23.400	-20.926	0.099
23.500	-28.364	0.099
23.600	9.242	0.099
23.700	-16.760	0.099
23.800	-22.941	0.099
23.900	-19.392	0.099
24.000	-50.092	0.099
24.100	-35.259	0.099
24.200	-16.705	0.099
24.300	-21.859	0.099
24.400	-14.753	0.099
24.500	1.520	0.099
24.600	-37.895	0.099
24.700	-26.966	0.099
24.800	-10.829	0.099
24.900	9.013	0.099
25.000	1.416	0.099
25.100	-19.305	0.099
25.200	1.961	0.099
25.300	7.519	0.099
25.400	-30.186	0.099
25.500	-44.645	0.099
25.600	-11.773	0.099
25.700	-15.147	0.099
25.800	-33.155	0.099
25.900	-13.449	0.099
26.000	-37.546	0.099
26.100	-26.297	0.099
26.200	2.574	0.099
26.300	-18.839	0.099
26.400	-26.008	0.099
26.500	-44.691	0.099
26.600	-34.970	0.099
26.700	-38.223	0.099
26.800	-26.355	0.099
26.900	-33.894	0.099
27.000	-3.199	0.099
27.100	-1.060	0.099
27.200	-10.243	0.099
27.300	-27.476	0.099
27.400	0.384	0.099
27.500	-30.998	0.099
27.600	-24.477	0.099
27.700	4.586	0.099
27.800	-12.099	0.099
27.900	3.094	0.099
28.000	-13.056	0.099
28.100	-14.613	0.099
28.200	-13.655	0.099
28.300	1.446	0.099
28.400	-15.401	0.099
28.500	-39.122	0.099
28.600	-19.046	0.099
28.700	-38.317	0.099
28.800	-12.464	0.099
28.900	1.858	0.099
29.000	-8.795	0.099
29.100	-33.227	0.099
29.200	-19.308	0.099
29.300	-38.943	0.099
29.400	-50.157	0.099
29.500	-19.491	0.099
29.600	-0.401	0.099
29.700	-13.573	0.099
29.800	-10.315	0.099
29.900	6.341	0.099
30.000	-26.990	0.099
30.100	-58.169	0.099
30.200	-34.292	0.099
30.300	-4.333	0.099
30.400	-41.291	0.099
30.500	10.524	0.099
30.600	8.243	0.099
30.700	3.307	0.099
30.800	-7.068	0.099
30.900	-19.711	0.099
31.000	-16.826	0.099
31.100	-5.291	0.099
31.200	-8.693	0.099
31.300	-10.778	0.099
31.400	-4.401	0.099
31.500	2.483	0.099
31.600	-13.072	0.099
31.700	-2.992	0.099
31.800	11.137	0.099
31.900	-7.928	0.099
32.000	15.643	0.099
32.100	7.873	0.099
32.200	-12.298	0.099
32.300	25.805	0.099
32.400	46.002	0.099
32.500	39.636	0.099
32.600	27.593	0.099
32.700	6.103	0.099
32.800	11.077	0.099
32.900	21.047	0.099
33.000	16.134	0.099
33.100	27.378	0.099
33.200	16.965	0.099
33.300	14.171	0.099
33.400	35.625	0.099
33.500	26.049	0.099
33.600	34.110	0.099
33.700	20.075	0.099
33.800	17.301	0.099
33.900	31.667	0.099
34.000	49.092	0.099
34.100	29.381	0.099
34.200	30.385	0.099
34.300	28.587	0.099
34.400	48.966	0.099
34.500	31.057	0.099
34.600	23.713	0.099
34.700	17.651	0.099
34.800	52.048	0.099
34.900	23.931	0.099
35.000	35.291	0.100
35.100	50.907	0.099
35.200	39.096	0.099
35.300	48.380	0.099
35.400	68.376	0.099
35.500	60.099	0.099
35.600	45.863	0.099
35.700	72.015	0.099
35.800	51.266	0.099
35.900	55.159	0.099
36.000	84.083	0.099
36.100	83.495	0.099
36.200	51.343	0.099
36.300	59.678	0.099
36.400	59.521	0.099
36.500	37.040	0.099
36.600	61.623	0.099
36.700	65.826	0.099
36.800	64.863	0.099
36.900	58.307	0.099
37.000	70.348	0.099
37.100	58.841	0.099
37.200	51.045	0.099
37.300	38.987	0.099
37.400	74.364	0.099
37.500	67.519	0.099
37.600	55.419	0.099
37.700	83.875	0.099
37.800	90.225	0.099
37.900	86.597	0.099
38.000	62.979	0.099
38.100	49.474	0.099
38.200	82.775	0.099
38.300	98.849	0.099
38.400	66.658	0.099
38.500	82.663	0.099
38.600	61.909	0.099
38.700	70.742	0.099
38.800	72.600	0.099
38.900	56.344	0.099
39.000	80.224	0.099
39.100	106.232	0.099
39.200	84.660	0.099
39.300	71.254	0.099
39.400	101.626	0.099
39.500	80.550	0.099
39.600	105.032	0.099
39.700	100.821	0.099
39.800	83.185	0.099
39.900	71.508	0.099
40.000	84.398	0.099
40.100	79.594	0.099
40.200	88.250	0.099
40.300	110.559	0.100
40.400	109.132	0.099
40.500	99.594	0.099
40.600	97.799	0.099
40.700	62.790	0.099
40.800	119.855	0.099
40.900	103.743	0.099
41.000	112.553	0.099
41.100	93.361	0.099
41.200	75.129	0.099
41.300	55.863	0.099
41.400	76.899	0.099
41.500	103.039	0.099
41.600	82.886	0.099
41.700	88.009	0.099
41.800	88.623	0.099
41.900	108.634	0.099
42.000	73.296	0.099
42.100	97.572	0.099
42.200	91.681	0.099
42.300	99.836	0.099
42.400	98.941	0.099
42.500	74.058	0.099
42.600	115.357	0.099
42.700	90.642	0.099
42.800	113.638	0.099
42.900	89.829	0.099
43.000	102.627	0.099
43.100	63.568	0.099
43.200	82.134	0.099
43.300	100.842	0.099
43.400	90.478	0.099
43.500	114.137	0.099
43.600	83.059	0.099
43.700	82.733	0.099
43.800	82.682	0.099
43.900	92.723	0.099
44.000	87.245	0.099
44.100	84.708	0.099
44.200	96.089	0.099
44.300	98.892	0.100
44.400	87.924	0.099
44.500	68.208	0.099
44.600	102.592	0.099
44.700	109.778	0.099
44.800	112.247	0.099
44.900	102.361	0.099
45.000	75.141	0.099
45.100	95.989	0.099
45.200	55.082	0.099
45.300	73.862	0.099
45.400	97.024	0.099
45.500	82.466	0.099
45.600	112.538	0.099
45.700	77.751	0.099
45.800	82.034	0.099
45.900	93.458	0.099
46.000	86.576	0.099
46.100	85.632	0.099
46.200	73.527	0.099
46.300	73.330	0.099
46.400	77.856	0.099
46.500	35.738	0.099
46.600	99.352	0.099
46.700	98.685	0.099
46.800	116.191	0.099
46.900	64.413	0.099
47.000	81.947	0.099
47.100	95.588	0.099
47.200	104.766	0.099
47.300	74.896	0.100
47.400	69.802	0.099
47.500	76.318	0.099
47.600	83.077	0.099
47.700	61.751	0.099
47.800	80.520	0.100
47.900	82.832	0.099
48.000	89.849	0.099
48.100	72.813	0.099
48.200	68.077	0.099
48.300	63.168	0.099
48.400	55.808	0.099
48.500	65.645	0.099
48.600	57.477	0.099
48.700	91.007	0.099
48.800	124.214	0.099
48.900	62.145	0.099
49.000	97.122	0.099
49.100	101.844	0.099
49.200	97.779	0.099
49.300	57.781	0.099
49.400	92.475	0.099
49.500	42.654	0.099
49.600	70.137	0.099
49.700	83.696	0.099
49.800	69.876	0.100
49.900	81.558	0.099
50.000	93.811	0.099
50.100	37.426	0.099
50.200	53.527	0.099
50.300	63.554	0.099
50.400	84.643	0.099
50.500	82.810	0.099
50.600	62.932	0.099
50.700	56.487	0.099
50.800	61.515	0.099
50.900	66.871	0.099
51.000	65.421	0.099
51.100	55.193	0.099
51.200	56.134	0.099
51.300	64.876	0.099
51.400	47.328	0.099
51.500	86.810	0.099
51.600	67.274	0.099
51.700	72.972	0.099
51.800	60.087	0.099
51.900	56.305	0.100
52.000	46.035	0.099
52.100	68.748	0.099
52.200	68.796	0.100
52.300	59.977	0.099
52.400	52.694	0.100
52.500	59.504	0.099
52.600	47.275	0.099
52.700	74.714	0.099
52.800	57.948	0.099
52.900	73.018	0.099
53.000	81.194	0.099
53.100	59.633	0.099
53.200	66.092	0.099
53.300	54.611	0.099
53.400	50.078	0.099
53.500	45.586	0.099
53.600	59.252	0.099
53.700	79.078	0.099
53.800	70.103	0.099
53.900	60.508	0.099
54.000	51.253	0.099
54.100	66.002	0.099
54.200	44.384	0.099
54.300	69.446	0.099
54.400	76.108	0.099
54.500	56.101	0.099
54.600	38.945	0.099
54.700	68.362	0.099
54.800	82.630	0.099
54.900	67.117	0.099
55.000	69.533	0.099
55.100	69.857	0.099
55.200	66.173	0.099
55.300	41.384	0.099
55.400	54.034	0.099
55.500	58.206	0.099
55.600	57.761	0.099
55.700	72.053	0.099
55.800	75.399	0.099
55.900	71.962	0.099
56.000	65.128	0.099
56.100	71.017	0.099
56.200	61.734	0.099
56.300	64.675	0.099
56.400	57.417	0.099
56.500	82.133	0.099
56.600	49.519	0.099
56.700	38.924	0.099
56.800	72.658	0.099
56.900	64.736	0.099
57.000	30.590	0.099
57.100	36.548	0.099
57.200	64.888	0.099
57.300	28.021	0.099
57.400	60.259	0.099
57.500	80.943	0.099
57.600	54.724	0.099
57.700	40.026	0.099
57.800	42.638	0.099
57.900	66.684	0.099
58.000	58.654	0.099
58.100	73.078	0.099
58.200	58.662	0.099
58.300	62.813	0.099
58.400	88.367	0.099
58.500	47.951	0.099
58.600	82.811	0.099
58.700	70.846	0.099
58.800	75.888	0.099
58.900	75.925	0.099
59.000	44.811	0.099
59.100	68.653	0.099
59.200	55.912	0.099
59.300	55.602	0.099
59.400	38.774	0.099
59.500	64.633	0.099
59.600	38.522	0.099
59.700	80.232	0.099
59.800	72.496	0.099
59.900	63.969	0.099
60.000	85.833	0.099
60.100	36.160	0.099
60.200	62.678	0.099
60.300	67.587	0.099
60.400	50.682	0.099
60.500	52.013	0.099
60.600	38.194	0.099
60.700	42.486	0.099
60.800	64.665	0.100
60.900	47.745	0.099
61.000	42.176	0.099
61.100	59.154	0.099
61.200	79.405	0.099
61.300	66.799	0.099
61.400	56.624	0.099
61.500	51.860	0.099
61.600	67.183	0.099
61.700	73.600	0.099
61.800	32.641	0.099
61.900	30.823	0.099
62.000	43.327	0.099
62.100	49.224	0.099
62.200	46.380	0.099
62.300	83.049	0.099
62.400	73.387	0.099
62.500	36.770	0.099
62.600	44.807	0.099
62.700	66.667	0.099
62.800	74.794	0.099
62.900	77.496	0.099
63.000	53.863	0.099
63.100	69.607	0.099
63.200	59.749	0.099
63.300	51.644	0.099
63.400	59.474	0.099
63.500	52.454	0.099
63.600	57.705	0.099
63.700	69.248	0.099
63.800	52.979	0.099
63.900	75.303	0.100
64.000	77.058	0.099
64.100	66.467	0.099
64.200	74.908	0.099
64.300	44.602	0.099
64.400	64.392	0.099
64.500	74.895	0.099
64.600	58.241	0.099
64.700	51.735	0.099
64.800	48.407	0.099
64.900	51.632	0.099
65.000	68.214	0.100
65.100	44.386	0.099
65.200	66.250	0.099
65.300	63.310	0.099
65.400	67.320	0.099
65.500	55.905	0.099
65.600	46.889	0.099
65.700	65.905	0.099
65.800	101.014	0.099
65.900	41.924	0.099
66.000	81.906	0.099
66.100	63.876	0.100
66.200	64.872	0.100
66.300	40.254	0.100
66.400	79.048	0.099
66.500	96.249	0.099
66.600	43.360	0.099
66.700	80.885	0.099
66.800	61.077	0.099
66.900	65.696	0.099
67.000	43.098	0.099
67.100	75.991	0.099
67.200	72.253	0.099
67.300	64.049	0.099
67.400	39.594	0.099
67.500	44.011	0.099
67.600	72.248	0.099
67.700	57.907	0.099
67.800	38.689	0.099
67.900	69.050	0.099
68.000	41.247	0.099
68.100	70.086	0.099
68.200	49.741	0.099
68.300	74.865	0.099
68.400	87.639	0.099
68.500	74.132	0.099
68.600	57.098	0.100
68.700	60.250	0.099
68.800	62.171	0.099
68.900	63.969	0.099
69.000	54.424	0.099
69.100	58.014	0.099
69.200	86.359	0.099
69.300	89.035	0.099
69.400	89.547	0.099
69.500	58.255	0.099
69.600	53.613	0.099
69.700	73.152	0.099
69.800	65.090	0.099
69.900	69.252	0.099
70.000	81.237	0.099
70.100	64.413	0.099
70.200	34.934	0.099
70.300	58.200	0.099
70.400	69.319	0.100
70.500	57.018	0.099
70.600	61.416	0.099
70.700	56.830	0.099
70.800	55.233	0.099
70.900	104.732	0.099
71.000	78.907	0.099
71.100	60.636	0.099
71.200	66.647	0.099
71.300	89.315	0.099
71.400	55.750	0.099
71.500	81.399	0.099
71.600	54.700	0.099
71.700	66.567	0.099
71.800	74.889	0.099
71.900	115.084	0.099
72.000	95.417	0.099
72.100	71.187	0.099
72.200	85.455	0.099
72.300	50.951	0.099
72.400	63.584	0.099
72.500	49.222	0.099
72.600	95.480	0.099
72.700	92.092	0.099
72.800	69.683	0.099
72.900	53.038	0.099
73.000	58.721	0.099
73.100	68.118	0.099
73.200	58.328	0.100
73.300	61.715	0.099
73.400	82.215	0.099
73.500	89.231	0.099
73.600	52.732	0.099
73.700	51.181	0.099
73.800	46.362	0.099
73.900	60.034	0.099
74.000	41.989	0.099
74.100	95.916	0.099
74.200	74.759	0.099
74.300	92.051	0.099
74.400	61.114	0.099
74.500	81.893	0.099
74.600	84.792	0.099
74.700	26.457	0.099
74.800	65.610	0.099
74.900	70.476	0.099
75.000	70.176	0.099
75.100	66.699	0.099
75.200	65.844	0.099
75.300	48.276	0.099
75.400	64.087	0.099
75.500	53.245	0.099
75.600	88.040	0.099
75.700	72.914	0.099
75.800	91.932	0.099
75.900	42.273	0.099
76.000	61.816	0.099
76.100	61.006	0.099
76.200	74.837	0.099
76.300	72.370	0.099
76.400	91.970	0.099
76.500	80.499	0.099
76.600	69.692	0.099
76.700	73.040	0.099
76.800	52.109	0.099
76.900	63.092	0.100
77.000	58.430	0.099
77.100	60.051	0.099
77.200	65.616	0.099
77.300	44.914	0.099
77.400	88.256	0.099
77.500	67.396	0.099
77.600	73.908	0.099
77.700	58.313	0.099
77.800	59.019	0.099
77.900	55.425	0.099
78.000	81.709	0.099
78.100	64.683	0.099
78.200	69.246	0.099
78.300	74.439	0.099
78.400	78.977	0.099
78.500	67.579	0.099
78.600	72.491	0.099
78.700	75.015	0.099
78.800	94.624	0.099
78.900	78.223	0.099
79.000	78.048	0.099
79.100	71.317	0.099
79.200	99.242	0.099
79.300	99.633	0.099
79.400	87.607	0.099
79.500	52.233	0.099
79.600	21.295	0.099
79.700	69.939	0.099
79.800	80.416	0.099
79.900	86.699	0.099
80.000	62.465	0.099
80.100	78.460	0.099
80.200	99.171	0.099
80.300	72.678	0.099
80.400	84.147	0.099
80.500	59.936	0.099
80.600	83.375	0.099
80.700	55.275	0.099
80.800	80.196	0.099
80.900	86.272	0.099
81.000	71.930	0.099
81.100	97.205	0.099
81.200	71.537	0.099
81.300	73.159	0.099
81.400	70.231	0.099
81.500	76.061	0.099
81.600	45.725	0.099
81.700	103.538	0.099
81.800	59.556	0.099
81.900	63.609	0.099
82.000	87.155	0.099
82.100	72.253	0.099
82.200	68.792	0.099
82.300	86.190	0.099
82.400	74.465	0.099
82.500	77.743	0.099
82.600	58.251	0.099
82.700	91.453	0.099
82.800	86.254	0.099
82.900	74.629	0.099
83.000	85.515	0.099
83.100	92.132	0.100
83.200	66.613	0.099
83.300	52.138	0.099
83.400	68.964	0.099
83.500	75.742	0.099
83.600	68.467	0.099
83.700	51.788	0.099
83.800	95.556	0.100
83.900	76.260	0.099
84.000	81.959	0.099
84.100	71.355	0.099
84.200	88.789	0.100
84.300	88.477	0.099
84.400	61.654	0.099
84.500	84.227	0.099
84.600	83.324	0.099
84.700	103.092	0.099
84.800	55.989	0.099
84.900	67.367	0.099
85.000	43.819	0.099
85.100	95.529	0.100
85.200	96.359	0.100
85.300	82.096	0.100
85.400	45.328	0.099
85.500	85.044	0.099
85.600	79.823	0.099
85.700	84.611	0.099
85.800	90.250	0.099
85.900	56.662	0.099
86.000	71.256	0.099
86.100	58.092	0.099
86.200	95.207	0.099
86.300	66.460	0.099
86.400	74.123	0.099
86.500	38.915	0.100
86.600	105.041	0.099
86.700	86.556	0.099
86.800	83.700	0.099
86.900	84.588	0.099
87.000	70.756	0.100
87.100	60.743	0.099
87.200	68.905	0.099
87.300	85.941	0.099
87.400	90.326	0.099
87.500	76.978	0.099
87.600	73.475	0.099
87.700	85.511	0.099
87.800	48.162	0.099
87.900	79.846	0.099
88.000	88.408	0.099
88.100	75.105	0.099
88.200	63.302	0.099
88.300	92.614	0.099
88.400	66.882	0.099
88.500	72.925	0.099
88.600	94.584	0.099
88.700	74.853	0.099
88.800	77.067	0.099
88.900	90.699	0.099
89.000	92.761	0.099
89.100	103.438	0.099
89.200	75.031	0.099
89.300	87.681	0.099
89.400	99.811	0.099
89.500	62.549	0.099
89.600	81.618	0.100
89.700	82.075	0.099
89.800	74.298	0.099
89.900	73.283	0.099
90.000	83.399	0.099
90.100	80.860	0.099
90.200	64.845	0.099
90.300	77.267	0.099
90.400	75.929	0.099
90.500	84.828	0.099
90.600	66.213	0.099
90.700	78.387	0.099
90.800	63.910	0.099
90.900	88.965	0.099
91.000	73.956	0.099
91.100	59.596	0.099
91.200	55.349	0.099
91.300	64.923	0.099
91.400	90.393	0.099
91.500	60.290	0.099
91.600	43.825	0.099
91.700	36.012	0.099
91.800	61.868	0.099
91.900	53.744	0.100
92.000	53.464	0.099
92.100	36.378	0.099
92.200	41.585	0.099
92.300	35.238	0.099
92.400	51.990	0.099
92.500	62.282	0.100
92.600	14.936	0.099
92.700	36.925	0.099
92.800	32.596	0.099
92.900	54.215	0.099
93.000	31.441	0.099
93.100	5.040	0.099
93.200	2.267	0.099
93.300	11.435	0.099
93.400	10.172	0.099
93.500	29.866	0.099
93.600	10.829	0.099
93.700	18.929	0.099
93.800	-8.731	0.099
93.900	-19.155	0.099
94.000	-5.995	0.099
94.100	40.744	0.099
94.200	20.388	0.099
94.300	17.879	0.099
94.400	15.366	0.099
94.500	6.938	0.099
94.600	3.285	0.099
94.700	-15.754	0.099
94.800	12.415	0.099
94.900	-0.286	0.100
95.000	-13.280	0.099
95.100	-12.524	0.099
95.200	18.124	0.099
95.300	-5.946	0.099
95.400	-4.198	0.099
95.500	2.408	0.099
95.600	7.137	0.099
95.700	-12.062	0.099
95.800	3.683	0.099
95.900	-0.936	0.099
96.000	4.399	0.099
96.100	-0.806	0.099
96.200	-28.040	0.099
96.300	4.605	0.099
96.400	-1.157	0.099
96.500	-16.533	0.099
96.600	-7.997	0.099
96.700	4.017	0.099
96.800	-23.879	0.099
96.900	-26.055	0.099
97.000	2.700	0.099
97.100	-31.843	0.099
97.200	-8.287	0.099
97.300	5.258	0.100
97.400	-12.365	0.099
97.500	2.939	0.099
97.600	-3.063	0.099
97.700	-16.800	0.100
97.800	-14.980	0.099
97.900	-20.060	0.099
98.000	-3.818	0.100
98.100	-40.659	0.099
98.200	-0.253	0.099
98.300	-28.779	0.099
98.400	-37.060	0.099
98.500	-33.139	0.099
98.600	5.426	0.099
98.700	-17.347	0.099
98.800	-35.514	0.100
98.900	-22.289	0.100
99.000	-20.408	0.099
99.100	13.359	0.099
99.200	19.335	0.099
99.300	7.588	0.099
99.400	9.094	0.099
99.500	-21.633	0.099
99.600	-15.739	0.099
99.700	-1.702	0.100
99.800	-8.605	0.099
99.900	-14.188	0.099
100.000	15.067	0.099
100.100	-5.464	0.100
100.200	-22.034	0.099
100.300	-30.140	0.099
100.400	-20.643	0.099
100.500	-0.673	0.099
100.600	6.427	0.099
100.700	3.868	0.099
100.800	8.382	0.099
100.900	-21.193	0.099
101.000	-4.082	0.099
101.100	-5.829	0.099
101.200	-7.444	0.099
101.300	-20.080	0.099
101.400	3.272	0.099
101.500	-16.707	0.099
101.600	-7.207	0.100
101.700	-23.927	0.099
101.800	1.008	0.099
101.900	5.012	0.099
102.000	10.126	0.099
102.100	-7.100	0.099
102.200	-13.447	0.099
102.300	-44.824	0.099
102.400	-8.105	0.099
102.500	-11.622	0.099
102.600	17.473	0.099
102.700	6.777	0.099
102.800	-15.763	0.099
102.900	-0.210	0.099
103.000	-13.564	0.100
103.100	-14.617	0.100
103.200	1.791	0.099
103.300	-16.654	0.099
103.400	-28.432	0.099
103.500	0.934	0.099
103.600	-0.654	0.099
103.700	-8.291	0.099
103.800	-8.434	0.099
103.900	6.330	0.099
104.000	28.658	0.100
104.100	-12.127	0.100
104.200	-19.618	0.099
104.300	9.502	0.099
104.400	-10.581	0.099
104.500	-38.608	0.099
104.600	-11.433	0.099
104.700	-14.537	0.099
104.800	7.704	0.100
104.900	-35.658	0.099
105.000	-23.837	0.100
105.100	-32.393	0.100
105.200	-0.554	0.099
105.300	-26.657	0.099
105.400	0.775	0.099
105.500	4.469	0.099
105.600	-8.022	0.100
105.700	-33.901	0.099
105.800	-12.256	0.099
105.900	23.875	0.100
106.000	-16.478	0.099
106.100	-13.973	0.099
106.200	-7.152	0.099
106.300	-2.758	0.099
106.400	-25.051	0.100
106.500	-0.784	0.099
106.600	-31.628	0.099
106.700	-24.765	0.100
106.800	1.409	0.099
106.900	-22.959	0.099
107.000	-3.966	0.099
107.100	20.535	0.099
107.200	-27.219	0.099
107.300	-12.011	0.099
107.400	-18.244	0.099
107.500	-14.556	0.100
107.600	-7.795	0.100
107.700	1.384	0.099
107.800	-11.393	0.099
107.900	-10.795	0.099
108.000	-6.152	0.099
108.100	-26.303	0.099
108.200	-34.385	0.099
108.300	-20.423	0.099
108.400	-0.248	0.099
108.500	1.416	0.099
108.600	-4.216	0.099
108.700	-19.762	0.100
108.800	-25.045	0.099
108.900	-30.955	0.099
109.000	-10.398	0.099
109.100	-4.290	0.099
109.200	-12.826	0.099
109.300	-8.826	0.099
109.400	-15.617	0.099
109.500	-16.875	0.099
109.600	-19.872	0.099
109.700	-33.369	0.099
109.800	-42.713	0.099
109.900	-5.753	0.099
110.000	-8.882	0.099
110.100	8.028	0.099
110.200	9.194	0.099
110.300	-32.784	0.099
110.400	-22.958	0.099
110.500	-5.463	0.099
110.600	-12.712	0.099
110.700	8.223	0.099
110.800	-29.790	0.099
110.900	-9.790	0.099
111.000	-11.462	0.099
111.100	-11.470	0.099
111.200	-69.146	0.099
111.300	-31.261	0.099
111.400	-37.237	0.099
111.500	-23.568	0.099
111.600	-13.350	0.099
111.700	1.496	0.099
111.800	-12.237	0.099
111.900	-50.530	0.099
112.000	-11.365	0.099
112.100	7.044	0.100
112.200	9.357	0.099
112.300	-5.976	0.099
112.400	-31.690	0.099
112.500	-38.361	0.099
112.600	6.536	0.099
112.700	-5.129	0.099
112.800	-11.788	0.099
112.900	-20.457	0.099
113.000	-48.342	0.099
113.100	7.767	0.099
113.200	-25.308	0.099
113.300	-47.322	0.099
113.400	-9.299	0.099
113.500	-26.093	0.099
113.600	-10.053	0.099
113.700	-35.535	0.099
113.800	-27.627	0.099
113.900	-15.191	0.099
114.000	11.555	0.099
114.100	7.277	0.099
114.200	-28.292	0.099
114.300	-33.314	0.099
114.400	-25.987	0.099
114.500	-19.940	0.099
114.600	6.733	0.100
114.700	-17.868	0.099
114.800	-15.439	0.099
114.900	-30.867	0.099
115.000	-40.807	0.099
115.100	-44.372	0.099
115.200	-16.114	0.099
115.300	-22.882	0.099
115.400	-13.011	0.099
115.500	-28.871	0.099
115.600	-28.170	0.099
115.700	-33.164	0.099
115.800	-13.243	0.099
115.900	-30.388	0.099
116.000	-36.167	0.100
116.100	-25.388	0.099
116.200	-25.177	0.099
116.300	-39.234	0.099
116.400	-31.318	0.099
116.500	-21.568	0.099
116.600	-11.718	0.099
116.700	-23.716	0.099
116.800	-33.823	0.099
116.900	-23.941	0.099
117.000	-14.706	0.099
117.100	-5.879	0.099
117.200	-32.406	0.099
117.300	-18.099	0.099
117.400	-25.124	0.099
117.500	-7.345	0.099
117.600	-20.105	0.099
117.700	-23.786	0.099
117.800	-23.301	0.099
117.900	-15.626	0.099
118.000	-17.125	0.099
118.100	-40.524	0.099
118.200	-38.235	0.099
118.300	-6.159	0.100
118.400	-4.218	0.099
118.500	-21.703	0.099
118.600	-33.478	0.099
118.700	-17.098	0.099
118.800	-43.911	0.099
118.900	-38.496	0.099
119.000	-21.237	0.099
119.100	-10.813	0.099
119.200	-11.423	0.099
119.300	-27.632	0.099
119.400	-47.743	0.099
119.500	3.487	0.099
119.600	-7.845	0.099
119.700	-4.378	0.099
119.800	-35.815	0.099
119.900	-18.039	0.099
120.000	-29.793	0.099
120.100	-13.830	0.099
120.200	-33.259	0.099
120.300	-43.889	0.100
120.400	9.159	0.099
120.500	-20.219	0.099
120.600	-27.093	0.099
120.700	-40.716	0.099
120.800	-17.734	0.099
120.900	-34.515	0.099
121.000	-4.813	0.099
121.100	-29.479	0.099
121.200	-50.551	0.099
121.300	-9.483	0.100
121.400	-34.429	0.099
121.500	-25.029	0.099
121.600	-14.791	0.099
121.700	-25.046	0.099
121.800	-30.898	0.099
121.900	-29.833	0.099
122.000	-36.894	0.099
122.100	-29.016	0.099
122.200	-20.526	0.099
122.300	-19.819	0.100
122.400	-16.163	0.099
122.500	-54.412	0.099
122.600	-3.122	0.099
122.700	-21.585	0.099
122.800	-4.269	0.099
122.900	-21.175	0.099
123.000	-24.983	0.099
123.100	-58.094	0.099
123.200	-12.819	0.100
123.300	-11.553	0.099
123.400	-28.553	0.099
123.500	-12.561	0.099
123.600	-24.040	0.099
123.700	-34.456	0.099
123.800	-22.734	0.099
123.900	-0.302	0.099
124.000	-27.672	0.099
124.100	-16.224	0.099
124.200	-37.794	0.099
124.300	-26.459	0.099
124.400	-29.711	0.099
124.500	-4.644	0.099
124.600	-38.386	0.099
124.700	-32.706	0.099
124.800	-29.631	0.099
124.900	-27.733	0.099
125.000	-21.954	0.099
125.100	-25.491	0.099
125.200	-33.419	0.099
125.300	-42.284	0.099
125.400	-30.402	0.099
125.500	0.139	0.099
125.600	-49.138	0.099
125.700	-23.090	0.099
125.800	-18.622	0.099
125.900	-26.324	0.099
126.000	-7.705	0.099
126.100	-40.627	0.099
126.200	5.846	0.099
126.300	6.953	0.099
126.400	-30.602	0.099
126.500	-12.651	0.100
126.600	-14.239	0.099
126.700	-31.867	0.099
126.800	-17.453	0.099
126.900	-23.941	0.099
127.000	-27.591	0.099
127.100	-29.961	0.100
127.200	-13.858	0.099
127.300	-21.818	0.099
127.400	-23.652	0.099
127.500	-28.267	0.099
127.600	-36.693	0.099
127.700	-23.645	0.099
127.800	-35.246	0.099
127.900	-25.902	0.100
128.000	-29.623	0.100
128.100	-33.293	0.099
128.200	-40.702	0.099
128.300	-39.944	0.099
128.400	-39.784	0.099
128.500	-20.881	0.099
128.600	-2.807	0.099
128.700	-21.405	0.099
128.800	-34.860	0.099
128.900	-22.351	0.100
129.000	-23.500	0.100
129.100	-53.378	0.100
129.200	-25.151	0.099
129.300	-14.801	0.099
129.400	-14.304	0.099
129.500	-27.878	0.099
129.600	-18.756	0.099
129.700	-61.947	0.099
129.800	-16.757	0.099
129.900	-29.048	0.099
130.000	-31.354	0.099
130.100	-15.347	0.099
130.200	-41.582	0.099
130.300	-43.948	0.100
130.400	-36.207	0.099
130.500	-29.571	0.099
130.600	-40.424	0.099
130.700	-30.197	0.099
130.800	-5.898	0.099
130.900	-17.944	0.099
131.000	-31.146	0.099
131.100	-48.515	0.099
131.200	-11.589	0.099
131.300	-38.247	0.099
131.400	-38.367	0.099
131.500	-38.707	0.099
131.600	-37.004	0.099
131.700	-29.666	0.099
131.800	-34.580	0.099
131.900	-19.892	0.099
132.000	-73.448	0.099
132.100	-33.379	0.099
132.200	-31.470	0.099
132.300	-30.215	0.099
132.400	-34.288	0.099
132.500	-50.473	0.099
132.600	-18.460	0.099
132.700	-12.186	0.099
132.800	-15.109	0.099
132.900	-31.998	0.099
133.000	-13.839	0.099
133.100	-19.408	0.099
133.200	-24.429	0.099
133.300	-30.506	0.099
133.400	-44.477	0.099
133.500	-52.508	0.099
133.600	-36.969	0.099
133.700	-24.762	0.099
133.800	-24.587	0.099
133.900	-21.271	0.099
134.000	-23.466	0.099
134.100	-34.584	0.099
134.200	-29.163	0.099
134.300	-24.281	0.099
134.400	-30.407	0.099
134.500	-41.202	0.099
134.600	-36.718	0.099
134.700	-28.945	0.099
134.800	5.082	0.099
134.900	-43.398	0.099
135.000	-48.104	0.099
135.100	35.792	0.099
135.200	3.870	0.099
135.300	-36.214	0.099
135.400	-57.290	0.099
135.500	-10.701	0.099
135.600	-28.799	0.099
135.700	-43.573	0.099
135.800	-39.588	0.099
135.900	-34.301	0.099
136.000	-29.900	0.099
136.100	-25.336	0.099
136.200	-30.531	0.099
136.300	-34.676	0.099
136.400	-19.645	0.099
136.500	-28.370	0.099
136.600	-31.925	0.099
136.700	-25.882	0.099
136.800	-31.062	0.099
136.900	-31.916	0.099
137.000	-42.300	0.099
137.100	-30.582	0.099
137.200	-36.143	0.099
137.300	-29.487	0.100
137.400	-57.536	0.099
137.500	-37.057	0.099
137.600	-22.386	0.099
137.700	-3.590	0.099
137.800	-18.147	0.099
137.900	-25.425	0.099
138.000	-62.704	0.099
138.100	-29.725	0.099
138.200	-9.829	0.099
138.300	-41.619	0.099
138.400	-15.568	0.099
138.500	-3.846	0.099
138.600	-20.885	0.099
138.700	-47.760	0.099
138.800	-21.806	0.099
138.900	-42.875	0.099
139.000	-33.698	0.099
139.100	-16.554	0.099
139.200	2.722	0.099
139.300	-47.397	0.099
139.400	-47.513	0.099
139.500	-28.454	0.099
139.600	-48.371	0.099
139.700	-37.258	0.099
139.800	-14.952	0.099
139.900	-20.399	0.099
140.000	-63.921	0.099
140.100	-14.893	0.099
140.200	-29.179	0.099
140.300	-5.681	0.099
140.400	-36.267	0.099
140.500	-51.183	0.099
140.600	-31.893	0.099
140.700	-47.256	0.099
140.800	-13.301	0.099
140.900	-40.818	0.099
141.000	-34.645	0.099
141.100	-29.104	0.099
141.200	-28.566	0.100
141.300	-32.788	0.099
141.400	-42.063	0.099
141.500	-54.236	0.099
141.600	-28.250	0.099
141.700	-15.370	0.099
141.800	-27.412	0.099
141.900	-4.069	0.099
142.000	-27.922	0.099
142.100	-16.213	0.099
142.200	-22.303	0.099
142.300	-15.805	0.099
142.400	-16.250	0.100
142.500	-49.705	0.099
142.600	-24.077	0.100
142.700	-31.033	0.099
142.800	-43.897	0.099
142.900	-34.064	0.099
143.000	-40.328	0.099
143.100	-22.999	0.099
143.200	-24.812	0.099
143.300	-43.348	0.099
143.400	-22.478	0.099
143.500	-33.032	0.099
143.600	-44.439	0.099
143.700	-39.497	0.099
143.800	-21.315	0.099
143.900	-14.402	0.099
144.000	-32.094	0.099
144.100	-10.716	0.099
144.200	-12.799	0.099
144.300	-41.782	0.099
144.400	-34.292	0.099
144.500	-26.459	0.099
144.600	-47.985	0.099
144.700	-39.467	0.099
144.800	-56.711	0.099
144.900	-24.721	0.100
145.000	-27.963	0.099
145.100	-53.224	0.099
145.200	-52.438	0.099
145.300	-31.049	0.099
145.400	8.281	0.099
145.500	-29.642	0.099
145.600	-35.193	0.099
145.700	-20.545	0.099
145.800	-33.448	0.099
145.900	-21.530	0.099
146.000	-19.679	0.099
146.100	-0.183	0.099
146.200	-3.151	0.099
146.300	-12.251	0.099
146.400	-46.820	0.099
146.500	-59.041	0.099
146.600	-24.663	0.099
146.700	-44.061	0.099
146.800	-19.559	0.099
146.900	-36.935	0.099
147.000	-22.811	0.099
147.100	-32.124	0.099
147.200	-37.141	0.099
147.300	-37.594	0.099
147.400	-42.083	0.099
147.500	-34.215	0.099
147.600	-39.147	0.099
147.700	-31.096	0.099
147.800	-34.152	0.100
147.900	-16.614	0.099
148.000	-23.078	0.100
148.100	-28.158	0.099
148.200	-28.043	0.099
148.300	-27.035	0.099
148.400	-33.754	0.099
148.500	-37.027	0.099
148.600	-24.754	0.099
148.700	-46.683	0.099
148.800	-27.786	0.099
148.900	-12.453	0.099
149.000	-39.322	0.099
149.100	-45.670	0.099
149.200	-60.517	0.099
149.300	-33.130	0.099
149.400	-22.230	0.099
149.500	-30.072	0.100
149.600	-36.857	0.099
149.700	-33.080	0.099
149.800	-22.847	0.099
149.900	-33.099	0.099
150.000	-27.097	0.099
150.100	-20.898	0.099
150.200	-41.999	0.099
150.300	-41.052	0.099
150.400	-19.074	0.099
150.500	-14.583	0.099
150.600	-36.235	0.099
150.700	-12.517	0.099
150.800	-37.949	0.099
150.900	-6.813	0.099
151.000	-26.714	0.099
151.100	-43.365	0.099
151.200	-59.157	0.100
151.300	-35.091	0.099
151.400	-38.816	0.099
151.500	-10.181	0.099
151.600	-26.170	0.099
151.700	-25.758	0.099
151.800	14.191	0.099
151.900	-23.375	0.099
152.000	-25.315	0.099
152.100	-7.289	0.099
152.200	-54.686	0.099
152.300	-54.172	0.099
152.400	-4.611	0.099
152.500	-27.156	0.099
152.600	-37.081	0.099
152.700	-29.662	0.099
152.800	-32.218	0.099
152.900	-3.047	0.099
153.000	-52.511	0.099
153.100	-22.592	0.099
153.200	-26.022	0.100
153.300	-29.046	0.100
153.400	-25.857	0.099
153.500	-24.628	0.099
153.600	-15.618	0.099
153.700	-22.499	0.099
153.800	-21.011	0.100
153.900	-31.446	0.099
154.000	-24.598	0.099
154.100	-30.527	0.099
154.200	-50.467	0.099
154.300	-51.996	0.099
154.400	-41.266	0.099
154.500	-23.686	0.099
154.600	-44.472	0.099
154.700	7.238	0.099
154.800	-11.520	0.099
154.900	-22.360	0.099
155.000	-55.159	0.099
155.100	-20.762	0.099
155.200	-20.475	0.099
155.300	-52.391	0.099
155.400	-26.098	0.099
155.500	-8.875	0.099
155.600	-45.727	0.099
155.700	-51.262	0.099
155.800	-50.501	0.099
155.900	-23.866	0.099
156.000	-28.616	0.099
156.100	-35.391	0.099
156.200	-67.904	0.099
156.300	-18.409	0.099
156.400	-4.590	0.100
156.500	-61.046	0.099
156.600	-16.721	0.099
156.700	-33.338	0.099
156.800	-24.177	0.099
156.900	-56.674	0.099
157.000	5.700	0.099
157.100	-25.031	0.099
157.200	-33.326	0.099
157.300	-26.060	0.099
157.400	-22.979	0.099
157.500	-2.228	0.099
157.600	-4.659	0.099
157.700	-42.973	0.099
157.800	-20.270	0.100
157.900	-22.360	0.099
158.000	-46.339	0.099
158.100	-3.363	0.099
158.200	-38.374	0.099
158.300	-29.145	0.099
158.400	-47.215	0.099
158.500	-45.382	0.099
158.600	-36.423	0.099
158.700	-28.853	0.099
158.800	5.740	0.099
158.900	-7.557	0.100
159.000	-19.481	0.099
159.100	-51.471	0.099
159.200	-45.312	0.099
159.300	-17.370	0.099
159.400	-28.486	0.100
159.500	-52.274	0.099
159.600	-34.616	0.099
159.700	-27.354	0.099
159.800	-30.519	0.099
159.900	-22.144	0.099
160.000	-12.463	0.099
160.100	-28.495	0.100
160.200	-77.791	0.099
160.300	-16.451	0.099
160.400	-12.934	0.099
160.500	-18.817	0.099
160.600	-12.734	0.100
160.700	-12.754	0.100
160.800	-27.214	0.100
160.900	-31.954	0.100
161.000	-40.318	0.099
161.100	-43.651	0.099
161.200	-8.507	0.099
161.300	-4.397	0.100
161.400	-37.611	0.099
161.500	-24.596	0.099
161.600	-29.165	0.099
161.700	-34.427	0.099
161.800	-17.026	0.099
161.900	-47.456	0.099
162.000	-23.180	0.099
162.100	-36.341	0.099
162.200	-36.795	0.099
162.300	-26.775	0.099
162.400	-28.859	0.099
162.500	-25.852	0.099
162.600	-37.053	0.099
162.700	-48.254	0.099
162.800	-13.728	0.099
162.900	-4.787	0.099
163.000	-29.694	0.099
163.100	-40.194	0.099
163.200	-36.773	0.100
163.300	-22.187	0.099
163.400	-44.476	0.099
163.500	-14.769	0.100
163.600	-25.939	0.099
163.700	-47.140	0.099
163.800	-38.343	0.099
163.900	-33.658	0.099
164.000	-18.647	0.099
164.100	-31.445	0.099
164.200	-46.014	0.099
164.300	2.674	0.099
164.400	1.286	0.099
164.500	-26.909	0.100
164.600	-33.005	0.099
164.700	-28.546	0.099
164.800	-31.711	0.099
164.900	-19.937	0.099
165.000	-24.905	0.100
165.100	-10.840	0.100
165.200	-36.589	0.099
165.300	-35.658	0.100
165.400	-32.448	0.099
165.500	-38.251	0.100
165.600	-52.675	0.099
165.700	-4.994	0.099
165.800	-50.296	0.099
165.900	-44.409	0.099
166.000	-59.265	0.099
166.100	-20.985	0.099
166.200	-12.575	0.099
166.300	-19.758	0.100
166.400	-40.312	0.099
166.500	-39.212	0.100
166.600	-39.098	0.100
166.700	-26.397	0.100
166.800	-50.654	0.099
166.900	-46.171	0.099
167.000	-35.159	0.100
167.100	-11.682	0.100
167.200	-12.563	0.099
167.300	-29.999	0.099
167.400	-30.624	0.099
167.500	-37.454	0.099
167.600	-12.044	0.099
167.700	-49.593	0.099
167.800	-27.915	0.099
167.900	14.139	0.100
168.000	-39.074	0.099
168.100	-17.124	0.100
168.200	1.245	0.099
168.300	-23.065	0.099
168.400	-44.384	0.099
168.500	-26.943	0.100
168.600	-37.379	0.099
168.700	-41.894	0.099
168.800	-45.054	0.099
168.900	-35.261	0.100
169.000	-26.101	0.100
169.100	-4.520	0.099
169.200	-36.063	0.099
169.300	-30.204	0.099
169.400	-61.763	0.100
169.500	-50.144	0.099
169.600	-40.658	0.099
169.700	-42.352	0.099
169.800	-55.186	0.100
169.900	-5.683	0.099
170.000	7.421	0.099
170.100	1.059	0.099
170.200	-17.478	0.099
170.300	-26.558	0.100
170.400	-33.140	0.100
170.500	-33.402	0.099
170.600	-27.269	0.100
170.700	-14.736	0.100
170.800	-31.911	0.099
170.900	-53.420	0.100
171.000	-25.461	0.100
171.100	-28.365	0.100
171.200	-42.590	0.099
171.300	-33.527	0.100
171.400	-26.490	0.100
171.500	-14.170	0.100
171.600	-5.015	0.099
171.700	-11.796	0.100
171.800	-39.362	0.100
171.900	-23.545	0.100
172.000	-25.502	0.100
172.100	-20.529	0.100
172.200	-28.163	0.100
172.300	-32.688	0.099
172.400	-8.349	0.100
172.500	-33.254	0.100
172.600	-43.145	0.100
172.700	-59.501	0.099
172.800	-66.529	0.100
172.900	-31.577	0.099
173.000	-31.968	0.099
173.100	-4.621	0.100
173.200	-4.283	0.100
173.300	-14.903	0.100
173.400	-15.331	0.100
173.500	-47.401	0.100
173.600	-17.795	0.100
173.700	-13.985	0.100
173.800	-18.092	0.100
173.900	-21.153	0.100
174.000	-49.077	0.099
174.100	-28.946	0.100
174.200	-38.344	0.100
174.300	-34.923	0.099
174.400	-33.906	0.100
174.500	-3.676	0.100
174.600	-36.583	0.099
174.700	-37.083	0.100
174.800	-16.521	0.100
174.900	-41.707	0.100
175.000	-60.595	0.099
175.100	-14.987	0.100
175.200	-36.924	0.100
175.300	-43.130	0.100
175.400	-14.183	0.100
175.500	-30.979	0.100
175.600	-1.144	0.100
175.700	-9.027	0.099
175.800	-15.506	0.100
175.900	-44.282	0.100
176.000	-16.624	0.099
176.100	-15.110	0.100
176.200	-17.641	0.100
176.300	-28.550	0.100
176.400	-42.733	0.100
176.500	-29.193	0.099
176.600	-35.669	0.099
176.700	-46.543	0.099
176.800	-14.143	0.100
176.900	-18.431	0.100
177.000	-28.408	0.099
177.100	-13.918	0.099
177.200	-24.084	0.099
177.300	-30.565	0.099
177.400	-9.995	0.099
177.500	-22.634	0.099
177.600	-58.255	0.100
177.700	-32.643	0.099
177.800	-19.330	0.100
177.900	-40.806	0.099
178.000	-8.411	0.100
178.100	-27.619	0.100
178.200	-8.407	0.100
178.300	-38.096	0.100
178.400	-29.746	0.100
178.500	-35.222	0.100
178.600	-22.095	0.100
178.700	-57.404	0.099
178.800	-21.867	0.100
178.900	-9.543	0.100
179.000	-12.433	0.100
179.100	-31.024	0.099
179.200	-42.385	0.100
179.300	-48.472	0.100
179.400	-16.855	0.099
179.500	-11.070	0.100
179.600	-21.676	0.100
179.700	-46.600	0.099
179.800	-13.217	0.099
179.900	-24.798	0.100
180.000	-37.398	0.099
180.100	-39.582	0.100
180.200	-28.030	0.099
180.300	-37.609	0.100
180.400	-7.137	0.100
180.500	-35.094	0.099
180.600	-47.028	0.099
180.700	-49.458	0.099
180.800	-20.104	0.100
180.900	-0.969	0.100
181.000	-19.013	0.099
181.100	-46.649	0.100
181.200	-18.826	0.100
181.300	3.399	0.099
181.400	-1.314	0.100
181.500	-11.102	0.099
181.600	-10.923	0.099
181.700	14.400	0.099
181.800	14.925	0.100
181.900	16.785	0.100
182.000	12.061	0.099
182.100	15.827	0.099
182.200	36.174	0.099
182.300	11.908	0.099
182.400	31.814	0.100
182.500	32.396	0.099
182.600	34.847	0.100
182.700	13.014	0.099
182.800	38.826	0.100
182.900	37.948	0.099
183.000	37.899	0.099
183.100	62.841	0.099
183.200	29.689	0.100
183.300	37.441	0.099
183.400	18.780	0.099
183.500	53.572	0.100
183.600	38.166	0.100
183.700	30.587	0.100
183.800	28.075	0.099
183.900	37.610	0.099
184.000	24.231	0.099
184.100	66.128	0.099
184.200	53.910	0.099
184.300	43.202	0.099
184.400	36.331	0.099
184.500	14.035	0.099
184.600	26.281	0.099
184.700	63.889	0.099
184.800	36.506	0.099
184.900	1.802	0.099
185.000	25.226	0.099
185.100	20.127	0.099
185.200	4.233	0.099
185.300	22.657	0.099
185.400	31.447	0.099
185.500	58.581	0.099
185.600	50.366	0.099
185.700	41.404	0.099
185.800	61.710	0.099
185.900	32.444	0.099
186.000	33.132	0.100
186.100	42.334	0.099
186.200	16.610	0.100
186.300	51.353	0.099
186.400	18.265	0.100
186.500	30.345	0.099
186.600	39.013	0.099
186.700	39.850	0.100
186.800	13.893	0.099
186.900	8.393	0.099
187.000	48.170	0.100
187.100	47.091	0.099
187.200	28.989	0.100
187.300	23.037	0.099
187.400	13.114	0.099
187.500	42.206	0.099
187.600	13.462	0.099
187.700	21.823	0.100
187.800	7.750	0.099
187.900	23.462	0.099
188.000	52.420	0.099
188.100	29.600	0.099
188.200	30.877	0.100
188.300	38.564	0.099
188.400	50.888	0.099
188.500	62.308	0.099
188.600	7.215	0.099
188.700	77.984	0.099
188.800	32.897	0.099
188.900	56.312	0.099
189.000	45.186	0.100
189.100	18.496	0.099
189.200	57.425	0.099
189.300	37.882	0.099
189.400	33.506	0.099
189.500	20.949	0.099
189.600	56.356	0.099
189.700	51.216	0.099
189.800	37.513	0.099
189.900	50.157	0.099
190.000	30.438	0.100
190.100	65.288	0.099
190.200	45.421	0.100
190.300	49.137	0.099
190.400	15.689	0.099
190.500	59.613	0.099
190.600	40.339	0.099
190.700	51.239	0.100
190.800	54.578	0.099
190.900	29.418	0.099
191.000	68.148	0.099
191.100	82.867	0.099
191.200	54.601	0.100
191.300	61.027	0.099
191.400	58.895	0.099
191.500	14.643	0.099
191.600	37.424	0.100
191.700	75.389	0.100
191.800	49.525	0.099
191.900	28.521	0.099
192.000	67.564	0.099
192.100	62.586	0.099
192.200	49.672	0.099
192.300	61.416	0.099
192.400	73.654	0.099
192.500	64.002	0.099
192.600	28.402	0.099
192.700	72.274	0.099
192.800	58.871	0.099
192.900	71.524	0.099
193.000	61.000	0.099
193.100	35.586	0.099
193.200	56.657	0.099
193.300	55.927	0.099
193.400	66.926	0.100
193.500	72.908	0.099
193.600	59.042	0.099
193.700	87.545	0.100
193.800	78.079	0.099
193.900	56.835	0.100
194.000	57.892	0.099
194.100	48.175	0.099
194.200	66.752	0.099
194.300	39.663	0.099
194.400	60.117	0.099
194.500	68.401	0.099
194.600	63.368	0.099
194.700	79.481	0.099
194.800	78.011	0.100
194.900	80.405	0.099
195.000	73.120	0.099
195.100	95.367	0.099
195.200	57.203	0.099
195.300	47.336	0.099
195.400	84.043	0.099
195.500	87.678	0.099
195.600	67.578	0.099
195.700	62.509	0.099
195.800	88.959	0.099
195.900	83.107	0.099
196.000	79.407	0.099
196.100	92.778	0.099
196.200	76.098	0.099
196.300	70.568	0.099
196.400	61.048	0.099
196.500	68.202	0.099
196.600	103.115	0.099
196.700	124.195	0.099
196.800	83.546	0.099
196.900	94.544	0.099
197.000	95.062	0.099
197.100	73.811	0.099
197.200	57.324	0.099
197.300	87.001	0.099
197.400	63.723	0.099
197.500	77.653	0.099
197.600	91.441	0.099
197.700	88.637	0.099
197.800	87.981	0.099
197.900	97.037	0.099
198.000	93.801	0.099
198.100	77.584	0.099
198.200	73.091	0.099
198.300	114.512	0.099
198.400	95.436	0.099
198.500	83.294	0.099
198.600	83.783	0.099
198.700	78.755	0.099
198.800	104.261	0.099
198.900	101.594	0.099
199.000	87.892	0.099
199.100	97.932	0.099
199.200	97.056	0.099
199.300	101.868	0.099
199.400	66.465	0.099
199.500	122.949	0.099
199.600	90.149	0.099
199.700	99.929	0.099
199.800	83.974	0.099
199.900	94.186	0.099
200.000	95.055	0.099
200.100	115.963	0.099
200.200	77.712	0.099
200.300	102.303	0.099
200.400	104.793	0.099
200.500	95.620	0.099
200.600	93.001	0.099
200.700	96.054	0.099
200.800	96.613	0.099
200.900	108.068	0.099
201.000	72.629	0.099
201.100	95.552	0.099
201.200	134.571	0.099
201.300	102.818	0.099
201.400	100.610	0.099
201.500	129.291	0.099
201.600	95.115	0.099
201.700	97.966	0.099
201.800	74.022	0.099
201.900	130.697	0.099
202.000	105.845	0.099
202.100	112.146	0.099
202.200	108.257	0.099
202.300	82.149	0.099
202.400	98.610	0.099
202.500	116.224	0.099
202.600	99.209	0.099
202.700	98.075	0.099
202.800	89.721	0.099
202.900	64.454	0.099
203.000	79.673	0.099
203.100	100.186	0.099
203.200	102.561	0.099
203.300	79.125	0.099
203.400	117.375	0.099
203.500	110.698	0.099
203.600	96.478	0.099
203.700	114.737	0.099
203.800	65.666	0.099
203.900	86.554	0.099
204.000	107.655	0.099
204.100	62.537	0.099
204.200	106.872	0.099
204.300	86.408	0.099
204.400	85.108	0.099
204.500	97.165	0.099
204.600	79.874	0.099
204.700	104.709	0.099
204.800	154.513	0.099
204.900	123.981	0.099
205.000	109.169	0.099
205.100	124.038	0.099
205.200	95.369	0.099
205.300	101.968	0.099
205.400	105.218	0.099
205.500	110.512	0.099
205.600	52.235	0.099
205.700	89.664	0.099
205.800	116.194	0.099
205.900	89.798	0.099
206.000	97.335	0.099
206.100	92.650	0.099
206.200	81.935	0.099
206.300	60.559	0.099
206.400	118.319	0.099
206.500	110.081	0.099
206.600	99.131	0.099
206.700	119.814	0.099
206.800	81.606	0.099
206.900	119.968	0.099
207.000	101.066	0.099
207.100	62.911	0.099
207.200	114.892	0.099
207.300	67.865	0.099
207.400	114.460	0.099
207.500	117.028	0.099
207.600	107.860	0.099
207.700	111.076	0.099
207.800	131.044	0.099
207.900	86.196	0.099
208.000	97.408	0.099
208.100	122.173	0.099
208.200	102.950	0.099
208.300	83.781	0.099
208.400	107.235	0.099
208.500	103.451	0.099
208.600	90.076	0.099
208.700	109.218	0.099
208.800	90.931	0.099
208.900	93.209	0.099
209.000	114.855	0.099
209.100	128.714	0.099
209.200	117.080	0.099
209.300	97.170	0.099
209.400	78.092	0.099
209.500	99.075	0.099
209.600	100.994	0.099
209.700	102.135	0.099
209.800	104.958	0.099
209.900	90.802	0.099
210.000	99.857	0.099
210.100	110.824	0.099
210.200	78.474	0.099
210.300	113.392	0.099
210.400	114.157	0.099
210.500	111.293	0.099
210.600	75.718	0.099
210.700	80.488	0.099
210.800	95.586	0.099
210.900	111.430	0.099
211.000	105.875	0.099
211.100	104.499	0.099
211.200	102.779	0.099
211.300	97.843	0.099
211.400	91.453	0.099
211.500	98.194	0.099
211.600	100.943	0.099
211.700	112.134	0.099
211.800	120.512	0.099
211.900	127.005	0.099
212.000	89.919	0.099
212.100	100.721	0.099
212.200	90.095	0.099
212.300	74.765	0.099
212.400	111.242	0.099
212.500	123.954	0.099
212.600	111.585	0.099
212.700	121.779	0.099
212.800	77.392	0.099
212.900	73.000	0.099
213.000	99.765	0.099
213.100	93.060	0.099
213.200	102.844	0.099
213.300	120.536	0.099
213.400	81.055	0.099
213.500	88.448	0.099
213.600	112.730	0.099
213.700	114.608	0.099
213.800	88.506	0.099
213.900	93.417	0.099
214.000	78.506	0.099
214.100	82.270	0.099
214.200	84.834	0.099
214.300	116.292	0.099
214.400	115.215	0.099
214.500	134.799	0.099
214.600	104.905	0.099
214.700	109.680	0.099
214.800	93.727	0.099
214.900	89.878	0.099
215.000	110.936	0.099
215.100	90.976	0.099
215.200	95.705	0.099
215.300	113.861	0.099
215.400	77.455	0.099
215.500	103.404	0.099
215.600	82.229	0.099
215.700	111.141	0.099
215.800	115.109	0.099
215.900	126.669	0.099
216.000	114.202	0.099
216.100	99.093	0.099
216.200	96.632	0.099
216.300	72.465	0.099
216.400	129.251	0.099
216.500	104.445	0.099
216.600	87.241	0.099
216.700	110.537	0.099
216.800	102.189	0.099
216.900	92.192	0.099
217.000	93.209	0.099
217.100	97.080	0.099
217.200	136.301	0.099
217.300	133.901	0.099
217.400	82.881	0.099
217.500	84.940	0.099
217.600	95.703	0.099
217.700	122.915	0.099
217.800	112.681	0.099
217.900	105.947	0.099
218.000	101.149	0.099
218.100	98.038	0.099
218.200	102.064	0.099
218.300	80.082	0.099
218.400	108.253	0.099
218.500	109.345	0.099
218.600	87.772	0.099
218.700	100.254	0.099
218.800	88.430	0.099
218.900	110.816	0.099
219.000	102.478	0.099
219.100	91.017	0.099
219.200	88.052	0.099
219.300	92.231	0.099
219.400	100.860	0.099
219.500	104.607	0.099
219.600	97.103	0.099
219.700	85.402	0.099
219.800	105.532	0.099
219.900	88.257	0.099
220.000	84.016	0.099
220.100	99.873	0.099
220.200	103.863	0.099
220.300	100.868	0.099
220.400	94.084	0.099
220.500	113.901	0.099
220.600	105.459	0.099
220.700	106.922	0.099
220.800	81.105	0.099
220.900	113.156	0.099
221.000	104.828	0.099
221.100	82.568	0.099
221.200	93.765	0.099
221.300	75.709	0.099
221.400	111.460	0.099
221.500	120.223	0.099
221.600	88.850	0.099
221.700	99.072	0.099
221.800	93.813	0.099
221.900	87.554	0.099
222.000	95.482	0.099
222.100	108.072	0.099
222.200	115.271	0.099
222.300	121.515	0.099
222.400	95.523	0.099
222.500	89.883	0.099
222.600	119.178	0.099
222.700	99.130	0.099
222.800	74.409	0.099
222.900	95.677	0.099
223.000	133.645	0.099
223.100	134.896	0.099
223.200	99.246	0.099
223.300	103.941	0.099
223.400	109.981	0.099
223.500	117.977	0.099
223.600	94.932	0.099
223.700	91.788	0.099
223.800	101.558	0.099
223.900	113.008	0.099
224.000	115.403	0.099
224.100	79.417	0.099
224.200	114.490	0.099
224.300	93.966	0.099
224.400	82.022	0.099
224.500	117.186	0.099
224.600	121.788	0.099
224.700	87.612	0.099
224.800	91.167	0.099
224.900	90.717	0.099
225.000	81.796	0.099
225.100	86.637	0.099
225.200	108.534	0.099
225.300	119.466	0.099
225.400	116.907	0.099
225.500	104.344	0.099
225.600	89.094	0.099
225.700	105.106	0.099
225.800	93.076	0.099
225.900	104.122	0.099
226.000	108.208	0.099
226.100	101.843	0.099
226.200	83.921	0.099
226.300	93.591	0.099
226.400	101.089	0.099
226.500	106.663	0.099
226.600	87.885	0.099
226.700	98.485	0.099
226.800	105.491	0.099
226.900	130.930	0.099
227.000	111.152	0.099
227.100	105.435	0.099
227.200	104.438	0.099
227.300	92.498	0.099
227.400	123.795	0.099
227.500	103.602	0.099
227.600	78.898	0.099
227.700	111.526	0.099
227.800	104.096	0.099
227.900	89.672	0.099
228.000	94.469	0.099
228.100	94.780	0.099
228.200	121.896	0.099
228.300	86.578	0.099
228.400	118.636	0.099
228.500	96.017	0.099
228.600	92.098	0.099
228.700	108.110	0.099
228.800	55.665	0.099
228.900	92.032	0.099
229.000	79.416	0.099
229.100	120.284	0.099
229.200	107.826	0.099
229.300	94.202	0.099
229.400	98.970	0.099
229.500	105.359	0.099
229.600	100.621	0.099
229.700	95.869	0.099
229.800	109.660	0.099
229.900	97.817	0.099
230.000	96.306	0.099
230.100	90.621	0.099
230.200	122.451	0.099
230.300	110.006	0.099
230.400	84.914	0.099
230.500	104.330	0.099
230.600	99.027	0.099
230.700	99.579	0.099
230.800	82.954	0.099
230.900	98.040	0.099
231.000	85.870	0.099
231.100	90.930	0.099
231.200	86.548	0.099
231.300	96.483	0.099
231.400	107.003	0.099
231.500	78.315	0.099
231.600	102.645	0.099
231.700	125.032	0.099
231.800	93.867	0.099
231.900	112.910	0.099
232.000	85.822	0.099
232.100	108.763	0.099
232.200	114.944	0.099
232.300	86.521	0.099
232.400	70.693	0.099
232.500	95.962	0.099
232.600	99.174	0.099
232.700	109.899	0.099
232.800	115.835	0.099
232.900	109.905	0.099
233.000	105.408	0.099
233.100	81.914	0.099
233.200	90.103	0.099
233.300	119.312	0.099
233.400	107.001	0.099
233.500	108.545	0.099
233.600	116.470	0.099
233.700	89.454	0.099
233.800	94.545	0.099
233.900	88.818	0.099
234.000	85.381	0.099
234.100	91.677	0.099
234.200	98.184	0.099
234.300	82.396	0.099
234.400	87.575	0.099
234.500	109.193	0.099
234.600	105.287	0.099
234.700	115.134	0.099
234.800	76.777	0.099
234.900	107.019	0.099
235.000	109.613	0.099
235.100	78.776	0.099
235.200	97.226	0.099
235.300	97.848	0.099
235.400	93.862	0.099
235.500	89.241	0.099
235.600	84.111	0.099
235.700	103.105	0.099
235.800	117.387	0.099
235.900	124.020	0.099
236.000	97.847	0.099
236.100	80.430	0.099
236.200	101.773	0.099
236.300	118.129	0.099
236.400	95.493	0.099
236.500	107.655	0.099
236.600	71.153	0.099
236.700	78.568	0.099
236.800	115.300	0.099
236.900	85.041	0.099
237.000	113.997	0.099
237.100	101.116	0.099
237.200	93.401	0.099
237.300	108.184	0.099
237.400	83.648	0.099
237.500	109.251	0.099
237.600	114.010	0.099
237.700	102.923	0.099
237.800	105.813	0.099
237.900	94.450	0.099
238.000	96.404	0.099
238.100	82.420	0.099
238.200	104.518	0.099
238.300	84.970	0.099
238.400	84.293	0.099
238.500	117.771	0.099
238.600	111.339	0.099
238.700	107.274	0.099
238.800	90.088	0.099
238.900	98.170	0.099
239.000	99.696	0.099
239.100	100.753	0.099
239.200	105.487	0.099
239.300	84.794	0.099
239.400	105.880	0.099
239.500	104.284	0.099
239.600	101.616	0.099
239.700	99.440	0.099
239.800	79.144	0.099
239.900	72.680	0.099
240.000	125.808	0.099
240.100	114.177	0.099
240.200	108.138	0.099
240.300	71.547	0.099
240.400	103.529	0.099
240.500	93.009	0.099
240.600	105.942	0.099
240.700	91.567	0.099
240.800	88.664	0.099
240.900	86.634	0.099
241.000	86.027	0.099
241.100	111.053	0.099
241.200	51.275	0.099
241.300	70.265	0.099
241.400	78.415	0.099
241.500	87.249	0.099
241.600	70.449	0.099
241.700	87.069	0.099
241.800	80.862	0.099
241.900	68.489	0.099
242.000	62.824	0.099
242.100	38.700	0.099
242.200	35.923	0.099
242.300	76.016	0.099
242.400	81.021	0.099
242.500	50.141	0.099
242.600	81.509	0.099
242.700	67.649	0.099
242.800	52.058	0.099
242.900	57.068	0.099
243.000	38.458	0.099
243.100	26.379	0.099
243.200	-3.085	0.099
243.300	36.129	0.099
243.400	51.119	0.099
243.500	31.838	0.099
243.600	14.936	0.099
243.700	57.975	0.099
243.800	25.667	0.099
243.900	29.456	0.099
244.000	-9.349	0.099
244.100	-2.300	0.099
244.200	18.811	0.099
244.300	51.983	0.099
244.400	30.291	0.099
244.500	-24.660	0.099
244.600	29.161	0.099
244.700	43.493	0.099
244.800	-0.167	0.099
244.900	3.602	0.099
245.000	11.424	0.099
245.100	20.775	0.099
245.200	33.670	0.099
245.300	15.930	0.099
245.400	31.778	0.099
245.500	34.227	0.099
245.600	35.887	0.099
245.700	25.107	0.099
245.800	9.669	0.099
245.900	-7.812	0.099
246.000	31.238	0.099
246.100	-9.987	0.099
246.200	3.787	0.099
246.300	-21.931	0.099
246.400	-3.916	0.099
246.500	20.155	0.099
246.600	-14.268	0.099
246.700	29.201	0.099
246.800	12.886	0.099
246.900	1.275	0.099
247.000	4.053	0.099
247.100	-10.256	0.099
247.200	13.362	0.099
247.300	-17.987	0.099
247.400	24.365	0.099
247.500	30.175	0.099
247.600	-4.795	0.099
247.700	8.271	0.099
247.800	-9.705	0.099
247.900	12.569	0.099
248.000	31.009	0.099
248.100	1.423	0.099
248.200	25.503	0.099
248.300	20.549	0.099
248.400	-2.412	0.099
248.500	-22.875	0.099
248.600	34.212	0.099
248.700	-1.156	0.099
248.800	18.266	0.099
248.900	1.123	0.099
249.000	3.096	0.099
249.100	-16.593	0.099
249.200	-27.250	0.099
249.300	24.123	0.099
249.400	2.673	0.099
249.500	-5.729	0.099
249.600	8.776	0.099
249.700	16.211	0.099
249.800	19.396	0.099
249.900	19.023	0.099
250.000	-2.521	0.099
250.100	5.996	0.099
250.200	-4.736	0.099
250.300	15.000	0.099
250.400	-5.229	0.099
250.500	-11.026	0.099
250.600	0.262	0.099
250.700	10.880	0.099
250.800	-2.020	0.099
250.900	10.668	0.099
251.000	9.665	0.099
251.100	19.921	0.099
251.200	-2.171	0.099
251.300	9.045	0.099
251.400	12.925	0.099
251.500	-4.176	0.099
251.600	14.347	0.099
251.700	0.423	0.099
251.800	11.564	0.099
251.900	-11.494	0.099
252.000	-20.708	0.099
252.100	-15.817	0.099
252.200	-22.518	0.099
252.300	17.388	0.099
252.400	-2.018	0.099
252.500	17.204	0.099
252.600	-1.810	0.099
252.700	-17.578	0.099
252.800	14.420	0.099
252.900	10.173	0.099
253.000	-8.537	0.099
253.100	21.582	0.099
253.200	-19.726	0.099
253.300	-5.901	0.099
253.400	-1.382	0.099
253.500	-0.592	0.099
253.600	23.487	0.099
253.700	0.934	0.099
253.800	2.935	0.099
253.900	-2.906	0.099
254.000	-18.030	0.099
254.100	-53.797	0.099
254.200	0.859	0.099
254.300	3.603	0.099
254.400	-10.130	0.099
254.500	-21.397	0.099
254.600	-27.572	0.099
254.700	-2.786	0.099
254.800	5.790	0.099
254.900	10.725	0.099
255.000	-8.623	0.099
255.100	4.565	0.099
255.200	-20.215	0.099
255.300	2.114	0.099
255.400	-26.362	0.099
255.500	1.197	0.099
255.600	3.650	0.099
255.700	-19.282	0.099
255.800	-23.810	0.099
255.900	-12.903	0.099
256.000	8.218	0.099
256.100	-23.115	0.099
256.200	-12.746	0.099
256.300	13.263	0.099
256.400	14.941	0.099
256.500	-2.027	0.099
256.600	-44.254	0.099
256.700	-5.946	0.099
256.800	-16.912	0.099
256.900	-20.263	0.099
257.000	-22.501	0.099
257.100	-14.646	0.099
257.200	-13.154	0.099
257.300	-12.645	0.099
257.400	-26.406	0.099
257.500	-19.233	0.099
257.600	-7.222	0.099
257.700	-8.514	0.099
257.800	-20.363	0.099
257.900	-3.213	0.099
258.000	-42.212	0.099
258.100	-7.910	0.099
258.200	-43.024	0.099
258.300	-11.054	0.099
258.400	9.310	0.099
258.500	6.636	0.099
258.600	-40.737	0.099
258.700	-24.602	0.099
258.800	6.946	0.099
258.900	-23.085	0.099
259.000	-41.708	0.099
259.100	-13.071	0.099
259.200	-10.455	0.099
259.300	0.656	0.099
259.400	-65.872	0.099
259.500	-22.590	0.099
259.600	-14.086	0.099
259.700	-6.168	0.099
259.800	-22.000	0.099
259.900	0.677	0.099
260.000	-17.188	0.099
260.100	4.807	0.099
260.200	-13.135	0.099
260.300	-19.955	0.099
260.400	-42.342	0.099
260.500	-22.628	0.099
260.600	-12.201	0.099
260.700	-41.085	0.099
260.800	-35.223	0.099
260.900	-23.497	0.099
261.000	-18.080	0.099
261.100	-31.658	0.099
261.200	-56.920	0.099
261.300	-38.888	0.099
261.400	-13.909	0.099
261.500	-17.842	0.099
261.600	-30.664	0.099
261.700	-29.377	0.099
261.800	-10.073	0.099
261.900	-9.637	0.099
262.000	-0.989	0.099
262.100	-22.337	0.099
262.200	-8.566	0.099
262.300	-25.280	0.099
262.400	-34.076	0.099
262.500	-15.870	0.099
262.600	-22.133	0.099
262.700	-35.491	0.099
262.800	-32.499	0.099
262.900	-32.610	0.099
263.000	-9.988	0.099
263.100	-30.282	0.099
263.200	-30.078	0.099
263.300	-17.672	0.099
263.400	-29.093	0.099
263.500	-35.671	0.099
263.600	-53.880	0.099
263.700	-29.656	0.099
263.800	7.483	0.099
263.900	-36.898	0.099
264.000	-23.151	0.099
264.100	-26.955	0.099
264.200	-42.299	0.099
264.300	-35.084	0.099
264.400	-43.815	0.099
264.500	1.136	0.099
264.600	-35.371	0.099
264.700	-9.015	0.099
264.800	-27.145	0.099
264.900	-31.034	0.099
265.000	-21.641	0.099
265.100	-45.924	0.099
265.200	-36.955	0.099
265.300	-39.870	0.099
265.400	-44.340	0.099
265.500	-39.311	0.099
265.600	-59.636	0.099
265.700	-51.881	0.099
265.800	-35.314	0.099
265.900	-28.076	0.099
266.000	-22.989	0.099
266.100	-36.635	0.099
266.200	-3.968	0.099
266.300	-35.359	0.099
266.400	-40.198	0.099
266.500	-38.148	0.099
266.600	-23.878	0.099
266.700	-6.766	0.099
266.800	-25.747	0.099
266.900	-32.809	0.099
267.000	-33.572	0.099
267.100	-20.640	0.099
267.200	-25.909	0.099
267.300	-42.463	0.099
267.400	-38.939	0.099
267.500	-40.954	0.099
267.600	-10.697	0.099
267.700	-29.821	0.099
267.800	-22.373	0.099
267.900	-42.142	0.099
268.000	-44.150	0.099
268.100	-28.334	0.099
268.200	-15.308	0.099
268.300	-42.787	0.099
268.400	-34.484	0.099
268.500	-46.110	0.099
268.600	-17.795	0.099
268.700	-43.236	0.099
268.800	-36.799	0.099
268.900	-44.157	0.099
269.000	-23.023	0.099
269.100	-45.289	0.099
269.200	-8.837	0.099
269.300	-27.132	0.099
269.400	-35.287	0.099
269.500	-49.268	0.099
269.600	-36.745	0.099
269.700	-37.860	0.099
269.800	-41.120	0.099
269.900	-56.470	0.099
270.000	-4.141	0.099
270.100	-50.683	0.099
270.200	-57.838	0.099
270.300	-19.251	0.099
270.400	-23.618	0.099
270.500	-24.104	0.099
270.600	-22.838	0.099
270.700	-26.484	0.099
270.800	-32.894	0.099
270.900	-50.380	0.099
271.000	-46.710	0.099
271.100	-47.250	0.099
271.200	-14.302	0.099
271.300	-49.148	0.099
271.400	-38.008	0.099
271.500	-23.567	0.099
271.600	-28.275	0.099
271.700	-31.285	0.099
271.800	-39.090	0.099
271.900	-38.309	0.099
272.000	-63.633	0.099
272.100	-30.688	0.100
272.200	-36.405	0.099
272.300	-21.345	0.099
272.400	-44.316	0.099
272.500	-20.184	0.099
272.600	-29.888	0.100
272.700	-71.842	0.100
272.800	-67.955	0.099
272.900	-31.240	0.099
273.000	-43.703	0.100
273.100	-59.308	0.099
273.200	3.540	0.100
273.300	-26.482	0.100
273.400	-41.506	0.100
273.500	-40.804	0.100
273.600	-5.224	0.100
273.700	-42.423	0.100
273.800	-68.530	0.100
273.900	-28.154	0.100
274.000	-23.093	0.100
274.100	-26.732	0.100
274.200	-61.399	0.100
274.300	-37.239	0.100
274.400	-60.923	0.100
274.500	-46.245	0.100
274.600	-22.568	0.100
274.700	-18.954	0.100
274.800	-7.806	0.100
274.900	-31.802	0.100
275.000	-57.131	0.100
275.100	-55.331	0.100
275.200	-36.680	0.100
275.300	-44.145	0.100
275.400	-54.061	0.100
275.500	-47.904	0.100
275.600	-44.988	0.100
275.700	-59.510	0.100
275.800	-21.004	0.100
275.900	-30.452	0.100
276.000	-29.275	0.100
276.100	-72.376	0.100
276.200	-42.650	0.100
276.300	-49.076	0.100
276.400	-12.691	0.100
276.500	-48.992	0.100
276.600	-46.831	0.100
276.700	-9.612	0.100
276.800	-51.905	0.100
276.900	-62.558	0.100
277.000	-36.291	0.100
277.100	-57.225	0.100
277.200	-32.404	0.100
277.300	-35.706	0.100
277.400	-32.759	0.100
277.500	-46.230	0.100
277.600	-33.879	0.100
277.700	-23.605	0.100
277.800	-45.603	0.100
277.900	-16.478	0.100
278.000	-30.653	0.100
278.100	-50.836	0.100
278.200	-44.840	0.100
278.300	-47.141	0.100
278.400	-56.268	0.100
278.500	-32.368	0.100
278.600	-49.902	0.100
278.700	-48.497	0.100
278.800	-24.568	0.100
278.900	-45.629	0.100
279.000	-44.842	0.100
279.100	-60.246	0.100
279.200	-60.031	0.100
279.300	-55.523	0.100
279.400	-40.427	0.100
279.500	-51.725	0.100
279.600	-38.400	0.100
279.700	-19.835	0.100
279.800	-36.825	0.100
279.900	-38.433	0.100
280.000	-20.813	0.100
280.100	-44.652	0.100
280.200	-42.864	0.100
280.300	-44.431	0.100
280.400	-36.001	0.100
280.500	-36.372	0.100
280.600	-32.494	0.100
280.700	-43.022	0.100
280.800	-56.048	0.100
280.900	-62.535	0.100
281.000	-40.782	0.100
281.100	-26.159	0.100
281.200	-14.840	0.100
281.300	-51.788	0.100
281.400	-46.468	0.100
281.500	-6.506	0.100
281.600	-7.966	0.100
281.700	-41.015	0.100
281.800	-52.428	0.100
281.900	-23.372	0.100
282.000	-30.021	0.100
282.100	-29.386	0.100
282.200	-46.465	0.100
282.300	-55.257	0.100
282.400	-39.257	0.100
282.500	-34.302	0.100
282.600	-35.728	0.100
282.700	-38.282	0.100
282.800	-42.928	0.100
282.900	-36.804	0.100
283.000	-70.325	0.100
283.100	-20.602	0.100
283.200	-36.507	0.100
283.300	-40.064	0.100
283.400	-68.657	0.100
283.500	-25.548	0.100
283.600	-21.529	0.100
283.700	-9.961	0.100
283.800	-50.616	0.100
283.900	-35.356	0.100
284.000	-21.249	0.100
284.100	-56.863	0.100
284.200	-38.146	0.100
284.300	-36.325	0.100
284.400	-17.049	0.100
284.500	-16.292	0.100
284.600	-33.239	0.100
284.700	-78.521	0.100
284.800	-40.621	0.100
284.900	-31.534	0.100
285.000	-35.511	0.100
285.100	-26.464	0.100
285.200	-4.572	0.100
285.300	-26.865	0.100
285.400	-44.398	0.100
285.500	-59.665	0.100
285.600	-12.555	0.100
285.700	-79.082	0.100
285.800	-32.323	0.100
285.900	-38.781	0.100
286.000	-43.225	0.100
286.100	-30.046	0.100
286.200	-26.074	0.100
286.300	-30.792	0.100
286.400	-51.722	0.100
286.500	-28.960	0.100
286.600	-33.425	0.100
286.700	-33.305	0.100
286.800	-48.908	0.100
286.900	-41.597	0.100
287.000	-34.463	0.100
287.100	-28.936	0.100
287.200	-38.657	0.100
287.300	-36.835	0.100
287.400	-34.176	0.100
287.500	-44.615	0.100
287.600	-57.028	0.100
287.700	-42.374	0.100
287.800	-46.160	0.100
287.900	-30.083	0.100
288.000	-32.785	0.100
288.100	-40.532	0.100
288.200	-53.420	0.100
288.300	-50.204	0.100
288.400	-41.014	0.100
288.500	-43.157	0.100
288.600	-28.497	0.100
288.700	-45.841	0.100
288.800	-35.302	0.100
288.900	-66.965	0.100
289.000	-33.783	0.100
289.100	-26.221	0.100
289.200	-41.629	0.100
289.300	-33.606	0.100
289.400	-44.899	0.100
289.500	-45.846	0.100
289.600	-57.795	0.100
289.700	-43.156	0.100
289.800	-33.794	0.100
289.900	-36.943	0.100
290.000	-36.879	0.100
290.100	-24.048	0.100
290.200	-44.152	0.100
290.300	-17.210	0.100
290.400	-24.552	0.100
290.500	-40.420	0.100
290.600	-46.880	0.100
290.700	-39.812	0.100
290.800	-33.038	0.100
290.900	-50.223	0.100
291.000	-38.779	0.100
291.100	-38.182	0.100
291.200	-60.357	0.100
291.300	-25.936	0.100
291.400	-45.961	0.100
291.500	-28.691	0.100
291.600	-50.546	0.100
291.700	-28.368	0.100
291.800	-19.180	0.100
291.900	-61.956	0.100
292.000	-48.681	0.100
292.100	-52.458	0.100
292.200	-49.006	0.100
292.300	-38.232	0.100
292.400	-33.554	0.100
292.500	-37.356	0.100
292.600	-23.464	0.100
292.700	-12.420	0.100
292.800	-35.790	0.100
292.900	-46.969	0.100
293.000	-25.583	0.100
293.100	-40.701	0.100
293.200	-48.180	0.100
293.300	-72.640	0.100
293.400	-32.900	0.100
293.500	-29.838	0.100
293.600	-28.925	0.100
293.700	-33.688	0.100
293.800	-25.414	0.100
293.900	-23.054	0.100
294.000	-37.636	0.099
294.100	-35.001	0.099
294.200	-25.527	0.100
294.300	-49.132	0.099
294.400	-22.180	0.099
294.500	-15.163	0.099
294.600	-65.813	0.099
294.700	-53.324	0.099
294.800	-41.458	0.099
294.900	-34.036	0.099
295.000	-20.842	0.099
295.100	-28.717	0.099
295.200	-19.084	0.099
295.300	-37.997	0.099
295.400	-39.636	0.099
295.500	-27.080	0.099
295.600	-50.342	0.099
295.700	-37.326	0.099
295.800	-42.741	0.099
295.900	-53.436	0.099
296.000	-48.531	0.099
296.100	-34.749	0.099
296.200	-30.078	0.099
296.300	-35.048	0.099
296.400	-54.214	0.099
296.500	-18.283	0.099
296.600	-28.174	0.099
296.700	-39.349	0.099
296.800	-39.377	0.099
296.900	-51.146	0.099
297.000	-40.590	0.099
297.100	-32.873	0.099
297.200	-50.109	0.099
297.300	-34.625	0.099
297.400	-34.875	0.099
297.500	-29.856	0.099
297.600	-40.814	0.099
297.700	-88.629	0.099
297.800	-56.870	0.099
297.900	-2.747	0.099
298.000	-31.632	0.099
298.100	-35.214	0.099
298.200	-60.987	0.099
298.300	-30.766	0.099
298.400	-23.643	0.099
298.500	-24.708	0.099
298.600	-31.244	0.099
298.700	-41.945	0.099
298.800	-39.335	0.099
298.900	-38.026	0.099
299.000	-27.819	0.099
299.100	-49.175	0.099
299.200	-33.118	0.099
299.300	-41.910	0.099
299.400	-52.571	0.099
299.500	-30.583	0.099
299.600	-37.535	0.099
299.700	-61.354	0.099
299.800	-27.306	0.099
299.900	-10.632	0.099
300.000	-26.431	0.099
300.100	-53.118	0.099
300.200	-33.873	0.099
300.300	-43.463	0.099
300.400	-39.351	0.099
300.500	-45.951	0.099
300.600	-54.547	0.099
300.700	-23.984	0.099
300.800	-56.765	0.099
300.900	-43.945	0.099
301.000	-52.107	0.099
301.100	-16.031	0.099
301.200	-36.650	0.099
301.300	-33.850	0.099
301.400	-24.128	0.099
301.500	-54.248	0.099
301.600	-43.818	0.099
301.700	-33.363	0.099
301.800	-44.785	0.099
301.900	-18.419	0.099
302.000	-29.235	0.099
302.100	-45.972	0.099
302.200	-30.490	0.099
302.300	-34.920	0.099
302.400	-36.190	0.099
302.500	-26.245	0.099
302.600	-49.077	0.099
302.700	-30.008	0.099
302.800	-35.735	0.099
302.900	-36.331	0.099
303.000	-31.811	0.099
303.100	-40.533	0.099
303.200	-26.619	0.099
303.300	-9.282	0.099
303.400	-23.226	0.099
303.500	-41.001	0.099
303.600	-30.232	0.099
303.700	-38.790	0.099
303.800	-41.551	0.099
303.900	-51.960	0.099
304.000	-59.960	0.099
304.100	-32.441	0.099
304.200	-7.546	0.099
304.300	-48.584	0.099
304.400	-66.249	0.099
304.500	-19.559	0.099
304.600	-45.896	0.099
304.700	-41.172	0.099
304.800	-17.040	0.099
304.900	-17.499	0.099
305.000	-45.079	0.099
305.100	-48.869	0.099
305.200	-21.331	0.099
305.300	-17.116	0.099
305.400	-19.259	0.099
305.500	-44.046	0.099
305.600	-38.667	0.099
305.700	-40.595	0.099
305.800	-20.157	0.099
305.900	-45.642	0.099
306.000	-43.637	0.099
306.100	-35.835	0.099
306.200	-45.867	0.099
306.300	-28.774	0.099
306.400	-43.435	0.099
306.500	-38.593	0.099
306.600	-54.146	0.099
306.700	-25.845	0.099
306.800	-31.472	0.099
306.900	-44.882	0.099
307.000	-37.223	0.099
307.100	-66.953	0.099
307.200	-37.917	0.099
307.300	-43.635	0.099
307.400	-28.800	0.099
307.500	-36.850	0.099
307.600	-28.411	0.099
307.700	2.718	0.099
307.800	-49.679	0.099
307.900	-40.032	0.099
308.000	-41.981	0.099
308.100	-30.850	0.099
308.200	-40.172	0.099
308.300	-36.853	0.099
308.400	-49.452	0.099
308.500	-21.742	0.099
308.600	-29.763	0.099
308.700	-51.081	0.099
308.800	-13.061	0.099
308.900	-40.739	0.099
309.000	-33.801	0.099
309.100	-41.436	0.099
309.200	-39.571	0.099
309.300	-38.777	0.099
309.400	-1.554	0.099
309.500	-59.648	0.099
309.600	-54.373	0.099
309.700	-50.715	0.099
309.800	-26.091	0.099
309.900	-5.676	0.099
310.000	-8.197	0.099
310.100	-39.772	0.099
310.200	-28.078	0.099
310.300	-53.624	0.099
310.400	-29.348	0.099
310.500	-15.022	0.099
310.600	-36.797	0.100
310.700	-43.602	0.099
310.800	-35.041	0.099
310.900	-23.990	0.099
311.000	-11.920	0.099
311.100	-64.574	0.099
311.200	-72.698	0.099
311.300	-38.104	0.099
311.400	-29.048	0.099
311.500	-51.395	0.099
311.600	-22.589	0.099
311.700	-23.027	0.099
311.800	-24.172	0.099
311.900	-41.626	0.099
312.000	-47.975	0.099
312.100	-29.529	0.099
312.200	-46.209	0.099
312.300	-33.961	0.099
312.400	-33.355	0.099
312.500	-30.931	0.099
312.600	-33.910	0.099
312.700	-36.783	0.099
312.800	-8.907	0.099
312.900	-46.895	0.099
313.000	-75.630	0.099
313.100	-16.747	0.099
313.200	-14.228	0.099
313.300	-36.005	0.099
313.400	-51.817	0.099
313.500	-50.340	0.099
313.600	-37.649	0.099
313.700	-55.696	0.099
313.800	-30.087	0.099
313.900	1.564	0.099
314.000	-30.791	0.099
314.100	-34.063	0.099
314.200	-33.230	0.099
314.300	-32.675	0.099
314.400	-57.107	0.099
314.500	-43.916	0.099
314.600	-40.383	0.099
314.700	-65.193	0.099
314.800	-17.732	0.099
314.900	-41.653	0.099
315.000	-24.259	0.099
315.100	-37.030	0.099
315.200	-66.961	0.099
315.300	-20.489	0.099
315.400	-10.048	0.099
315.500	-48.594	0.099
315.600	-39.429	0.099
315.700	-49.402	0.099
315.800	-23.158	0.099
315.900	-43.630	0.099
316.000	-38.177	0.099
316.100	-24.462	0.099
316.200	-52.426	0.099
316.300	-18.117	0.099
316.400	-27.690	0.099
316.500	-28.925	0.099
316.600	-33.563	0.099
316.700	-15.649	0.099
316.800	-26.114	0.099
316.900	-27.751	0.099
317.000	-57.210	0.099
317.100	-30.350	0.099
317.200	-45.998	0.099
317.300	-26.767	0.099
317.400	-33.745	0.099
317.500	-29.103	0.099
317.600	-32.068	0.099
317.700	-59.540	0.099
317.800	-48.822	0.099
317.900	-40.436	0.099
318.000	-9.941	0.099
318.100	-27.666	0.099
318.200	-5.353	0.099
318.300	-39.341	0.099
318.400	-46.269	0.099
318.500	-33.853	0.099
318.600	-49.813	0.099
318.700	-23.240	0.099
318.800	-47.320	0.099
318.900	-1.343	0.099
319.000	-20.180	0.099
319.100	-53.439	0.099
319.200	-38.926	0.099
319.300	-14.162	0.099
319.400	-13.105	0.099
319.500	-53.878	0.099
319.600	-2.710	0.099
319.700	-19.570	0.099
319.800	-36.485	0.099
319.900	-30.183	0.099
320.000	-33.563	0.099
320.100	-29.200	0.099
320.200	-23.006	0.099
320.300	-41.486	0.099
320.400	-41.725	0.099
320.500	-39.496	0.099
320.600	-26.616	0.099
320.700	-35.686	0.099
320.800	-26.045	0.099
320.900	-34.313	0.099
321.000	-15.674	0.099
321.100	-46.926	0.099
321.200	-57.091	0.099
321.300	-48.654	0.099
321.400	-56.427	0.099
321.500	-25.308	0.099
321.600	-10.619	0.099
321.700	-13.111	0.099
321.800	-30.195	0.099
321.900	-60.012	0.099
322.000	-34.101	0.099
322.100	-29.234	0.099
322.200	-43.985	0.099
322.300	-44.022	0.099
322.400	-74.156	0.099
322.500	-0.154	0.099
322.600	-38.437	0.099
322.700	-26.882	0.099
322.800	-31.405	0.099
322.900	-25.366	0.099
323.000	-24.628	0.099
323.100	-45.800	0.099
323.200	-33.574	0.099
323.300	-15.914	0.099
323.400	-17.262	0.099
323.500	-51.765	0.099
323.600	-35.712	0.099
323.700	-37.979	0.099
323.800	-34.250	0.099
323.900	-80.990	0.099
324.000	-51.642	0.099
324.100	-28.428	0.099
324.200	-33.513	0.099
324.300	-38.849	0.099
324.400	-41.676	0.099
324.500	-52.472	0.099
324.600	-50.723	0.099
324.700	-14.869	0.099
324.800	-25.202	0.099
324.900	-9.161	0.099
325.000	-35.892	0.099
325.100	-13.436	0.099
325.200	-46.949	0.099
325.300	-20.540	0.099
325.400	-39.456	0.099
325.500	-23.468	0.099
325.600	-23.543	0.099
325.700	-57.008	0.099
325.800	-45.700	0.099
325.900	-25.630	0.099
326.000	-27.687	0.099
326.100	-43.168	0.100
326.200	-26.573	0.099
326.300	-25.471	0.099
326.400	-29.994	0.099
326.500	-45.466	0.099
326.600	-52.198	0.099
326.700	-40.957	0.099
326.800	-34.721	0.099
326.900	-31.466	0.099
327.000	-19.240	0.099
327.100	-27.948	0.100
327.200	-39.697	0.099
327.300	-12.399	0.099
327.400	-29.442	0.099
327.500	-22.834	0.099
327.600	-23.014	0.099
327.700	-57.662	0.099
327.800	-35.267	0.099
327.900	-44.802	0.099
328.000	-38.741	0.099
328.100	-21.132	0.099
328.200	-58.223	0.099
328.300	-47.576	0.099
328.400	-39.287	0.099
328.500	-13.099	0.099
328.600	-40.426	0.099
328.700	-27.583	0.099
328.800	-65.202	0.099
328.900	-36.778	0.100
329.000	-31.718	0.099
329.100	-17.843	0.099
329.200	-33.716	0.099
329.300	-30.493	0.099
329.400	-30.539	0.099
329.500	-4.407	0.099
329.600	-15.151	0.099
329.700	-45.980	0.099
329.800	-34.244	0.099
329.900	-29.585	0.099
330.000	-36.100	0.099
330.100	-42.570	0.099
330.200	-50.677	0.099
330.300	-30.916	0.099
330.400	-40.564	0.099
330.500	-29.272	0.099
330.600	-51.437	0.099
330.700	-31.285	0.099
330.800	-11.668	0.099
330.900	-12.133	0.099
331.000	-44.801	0.099
331.100	-7.305	0.099
331.200	-15.588	0.099
331.300	-12.161	0.099
331.400	-8.719	0.099
331.500	-15.666	0.099
331.600	-28.105	0.099
331.700	-0.453	0.099
331.800	-4.634	0.099
331.900	7.950	0.099
332.000	8.645	0.099
332.100	13.152	0.099
332.200	11.373	0.099
332.300	35.418	0.099
332.400	16.502	0.099
332.500	26.880	0.099
332.600	19.380	0.099
332.700	9.617	0.099
332.800	24.104	0.099
332.900	46.086	0.099
333.000	36.182	0.099
333.100	10.181	0.099
333.200	49.445	0.099
333.300	27.157	0.099
333.400	61.800	0.099
333.500	14.622	0.099
333.600	6.636	0.099
333.700	24.266	0.099
333.800	44.531	0.099
333.900	15.137	0.099
334.000	39.113	0.099
334.100	53.982	0.099
334.200	47.018	0.099
334.300	43.651	0.099
334.400	25.635	0.099
334.500	43.782	0.099
334.600	29.463	0.099
334.700	24.472	0.099
334.800	1.819	0.099
334.900	59.700	0.099
335.000	30.323	0.099
335.100	4.960	0.099
335.200	27.335	0.099
335.300	37.592	0.099
335.400	21.082	0.099
335.500	36.225	0.099
335.600	43.482	0.099
335.700	24.758	0.099
335.800	10.446	0.099
335.900	-2.060	0.099
336.000	28.207	0.099
336.100	30.203	0.099
336.200	19.164	0.099
336.300	14.334	0.099
336.400	29.583	0.099
336.500	35.823	0.099
336.600	32.799	0.099
336.700	37.933	0.099
336.800	50.586	0.099
336.900	15.630	0.099
337.000	64.977	0.099
337.100	44.078	0.099
337.200	21.029	0.099
337.300	10.611	0.099
337.400	30.109	0.099
337.500	26.168	0.099
337.600	18.625	0.099
337.700	9.144	0.099
337.800	49.778	0.099
337.900	22.774	0.099
338.000	70.406	0.099
338.100	2.925	0.099
338.200	32.651	0.099
338.300	35.968	0.099
338.400	27.173	0.099
338.500	26.083	0.099
338.600	-0.448	0.099
338.700	36.853	0.099
338.800	62.681	0.099
338.900	48.484	0.099
339.000	53.889	0.099
339.100	32.271	0.099
339.200	52.939	0.099
339.300	39.574	0.099
339.400	40.790	0.099
339.500	18.178	0.099
339.600	34.828	0.099
339.700	64.098	0.099
339.800	29.463	0.099
339.900	54.817	0.099
340.000	39.270	0.099
340.100	60.557	0.099
340.200	63.278	0.099
340.300	54.603	0.099
340.400	68.380	0.099
340.500	59.279	0.099
340.600	52.627	0.099
340.700	50.625	0.099
340.800	45.349	0.099
340.900	76.728	0.099
341.000	48.793	0.099
341.100	75.533	0.099
341.200	64.898	0.099
341.300	48.787	0.099
341.400	33.251	0.099
341.500	54.869	0.099
341.600	47.944	0.099
341.700	55.357	0.099
341.800	40.611	0.099
341.900	78.044	0.099
342.000	67.437	0.099
342.100	61.066	0.099
342.200	38.797	0.099
342.300	42.382	0.099
342.400	83.019	0.099
342.500	82.213	0.099
342.600	67.208	0.099
342.700	63.423	0.099
342.800	44.956	0.099
342.900	41.557	0.099
343.000	75.605	0.099
343.100	54.803	0.099
343.200	84.194	0.099
343.300	69.957	0.099
343.400	88.449	0.099
343.500	86.462	0.099
343.600	67.214	0.099
343.700	13.228	0.099
343.800	60.775	0.099
343.900	95.919	0.099
344.000	90.385	0.099
344.100	89.783	0.099
344.200	77.603	0.099
344.300	65.632	0.099
344.400	107.221	0.099
344.500	73.732	0.099
344.600	90.076	0.099
344.700	80.141	0.099
344.800	82.366	0.099
344.900	83.978	0.099
345.000	78.130	0.099
345.100	101.401	0.099
345.200	62.809	0.099
345.300	64.472	0.099
345.400	96.144	0.099
345.500	113.424	0.099
345.600	80.121	0.099
345.700	87.753	0.099
345.800	110.843	0.099
345.900	83.379	0.099
346.000	69.613	0.099
346.100	79.398	0.099
346.200	69.680	0.099
346.300	86.710	0.099
346.400	96.042	0.099
346.500	90.762	0.099
346.600	109.638	0.099
346.700	95.997	0.099
346.800	96.260	0.099
346.900	112.483	0.099
347.000	81.999	0.099
347.100	107.246	0.099
347.200	120.258	0.099
347.300	78.540	0.099
347.400	96.722	0.099
347.500	101.111	0.099
347.600	101.957	0.099
347.700	104.795	0.099
347.800	82.930	0.099
347.900	102.080	0.099
348.000	84.023	0.099
348.100	105.089	0.099
348.200	117.283	0.099
348.300	70.999	0.099
348.400	93.943	0.099
348.500	81.788	0.099
348.600	130.984	0.099
348.700	113.435	0.099
348.800	118.879	0.099
348.900	100.049	0.099
349.000	109.562	0.099
349.100	84.938	0.099
349.200	105.223	0.099
349.300	111.097	0.099
349.400	146.217	0.099
349.500	87.211	0.099
349.600	122.691	0.099
349.700	95.199	0.099
349.800	128.492	0.099
349.900	109.401	0.099
350.000	108.249	0.099
350.100	121.841	0.099
350.200	70.826	0.099
350.300	102.293	0.099
350.400	89.175	0.099
350.500	91.943	0.099
350.600	118.150	0.099
350.700	111.159	0.099
350.800	71.969	0.099
350.900	101.239	0.099
351.000	78.323	0.099
351.100	134.443	0.099
351.200	109.550	0.099
351.300	130.862	0.099
351.400	114.903	0.099
351.500	111.148	0.099
351.600	107.891	0.099
351.700	133.375	0.099
351.800	105.910	0.099
351.900	119.318	0.099
352.000	112.062	0.099
352.100	135.264	0.099
352.200	114.999	0.099
352.300	120.647	0.099
352.400	120.993	0.099
352.500	88.221	0.099
352.600	123.325	0.099
352.700	126.492	0.099
352.800	112.610	0.099
352.900	116.445	0.099
353.000	102.933	0.099
353.100	124.101	0.099
353.200	122.250	0.099
353.300	114.174	0.099
353.400	107.290	0.099
353.500	102.628	0.099
353.600	132.231	0.099
353.700	108.736	0.099
353.800	134.683	0.099
353.900	129.193	0.100
354.000	102.590	0.099
354.100	122.147	0.099
354.200	106.765	0.099
354.300	105.281	0.099
354.400	116.036	0.099
354.500	122.778	0.099
354.600	127.321	0.099
354.700	113.288	0.099
354.800	130.661	0.099
354.900	129.641	0.099
355.000	132.776	0.099
355.100	107.369	0.099
355.200	103.552	0.099
355.300	107.124	0.099
355.400	96.863	0.099
355.500	139.360	0.099
355.600	124.134	0.099
355.700	118.812	0.099
355.800	122.362	0.099
355.900	103.837	0.099
356.000	94.869	0.099
356.100	115.941	0.099
356.200	114.163	0.099
356.300	86.642	0.099
356.400	108.567	0.099
356.500	109.593	0.099
356.600	118.848	0.099
356.700	105.221	0.099
356.800	98.744	0.099
356.900	105.559	0.099
357.000	132.964	0.099
357.100	136.233	0.099
357.200	110.633	0.099
357.300	118.228	0.099
357.400	97.884	0.099
357.500	104.346	0.100
357.600	98.740	0.099
357.700	133.023	0.099
357.800	118.016	0.099
357.900	105.936	0.099
358.000	86.353	0.099
358.100	123.176	0.099
358.200	125.123	0.099
358.300	132.601	0.099
358.400	131.413	0.099
358.500	111.429	0.099
358.600	123.372	0.099
358.700	93.604	0.099
358.800	122.321	0.099
358.900	127.509	0.099
359.000	105.675	0.099
359.100	120.035	0.099
359.200	95.828	0.099
359.300	130.347	0.099
359.400	124.657	0.099
359.500	124.941	0.099
359.600	102.431	0.099
359.700	115.589	0.099
359.800	108.594	0.099
359.900	92.417	0.099
360.000	122.876	0.099
360.100	104.225	0.099
360.200	128.621	0.099
360.300	108.529	0.099
360.400	104.224	0.100
360.500	143.683	0.099
360.600	108.164	0.099
360.700	112.979	0.099
360.800	96.206	0.099
360.900	101.792	0.099
361.000	100.981	0.099
361.100	128.408	0.099
361.200	96.142	0.099
361.300	122.667	0.100
361.400	101.833	0.099
361.500	112.849	0.099
361.600	107.502	0.099
361.700	86.516	0.099
361.800	130.998	0.099
361.900	116.539	0.099
362.000	111.440	0.099
362.100	108.045	0.099
362.200	94.976	0.099
362.300	112.335	0.099
362.400	121.561	0.099
362.500	113.162	0.099
362.600	108.138	0.099
362.700	115.968	0.099
362.800	115.585	0.099
362.900	108.148	0.099
363.000	120.112	0.099
363.100	127.048	0.099
363.200	104.134	0.099
363.300	104.767	0.099
363.400	118.894	0.099
363.500	104.403	0.099
363.600	89.253	0.099
363.700	108.257	0.099
363.800	116.386	0.099
363.900	123.445	0.099
364.000	115.988	0.099
364.100	103.121	0.099
364.200	93.156	0.099
364.300	126.584	0.099
364.400	129.003	0.099
364.500	123.125	0.099
364.600	119.490	0.100
364.700	112.048	0.099
364.800	66.225	0.099
364.900	116.350	0.099
365.000	108.714	0.099
365.100	116.155	0.099
365.200	89.875	0.099
365.300	100.818	0.099
365.400	95.471	0.099
365.500	108.143	0.099
365.600	97.589	0.099
365.700	124.862	0.099
365.800	102.060	0.099
365.900	126.272	0.099
366.000	103.511	0.099
366.100	105.405	0.099
366.200	111.109	0.099
366.300	78.275	0.099
366.400	126.868	0.099
366.500	95.703	0.099
366.600	92.479	0.099
366.700	149.973	0.099
366.800	110.228	0.100
366.900	118.039	0.099
367.000	99.847	0.099
367.100	100.392	0.099
367.200	110.087	0.099
367.300	113.072	0.099
367.400	123.432	0.099
367.500	115.256	0.099
367.600	124.373	0.099
367.700	99.197	0.099
367.800	83.614	0.099
367.900	111.875	0.099
368.000	112.257	0.099
368.100	105.858	0.099
368.200	101.639	0.099
368.300	108.708	0.099
368.400	108.014	0.099
368.500	102.402	0.099
368.600	131.738	0.100
368.700	104.576	0.099
368.800	97.356	0.099
368.900	104.895	0.099
369.000	109.242	0.099
369.100	95.358	0.099
369.200	115.755	0.099
369.300	92.668	0.099
369.400	133.824	0.099
369.500	69.136	0.099
369.600	134.378	0.099
369.700	116.191	0.099
369.800	97.870	0.099
369.900	108.877	0.099
370.000	109.599	0.099
370.100	123.597	0.099
370.200	99.049	0.099
370.300	98.817	0.099
370.400	95.675	0.099
370.500	124.721	0.099
370.600	129.221	0.099
370.700	111.442	0.099
370.800	95.856	0.099
370.900	111.176	0.099
371.000	109.678	0.099
371.100	134.750	0.099
371.200	131.410	0.100
371.300	109.886	0.099
371.400	96.964	0.099
371.500	102.195	0.099
371.600	114.353	0.099
371.700	115.237	0.099
371.800	82.412	0.099
371.900	115.888	0.099
372.000	105.608	0.099
372.100	124.997	0.099
372.200	129.314	0.099
372.300	98.507	0.100
372.400	82.543	0.099
372.500	96.493	0.099
372.600	108.083	0.099
372.700	113.251	0.099
372.800	106.931	0.099
372.900	92.757	0.099
373.000	76.790	0.099
373.100	99.300	0.099
373.200	116.639	0.099
373.300	101.421	0.099
373.400	119.834	0.099
373.500	103.135	0.099
373.600	103.449	0.099
373.700	116.899	0.099
373.800	102.046	0.099
373.900	117.953	0.099
374.000	93.980	0.099
374.100	97.667	0.099
374.200	83.805	0.099
374.300	102.513	0.099
374.400	128.190	0.099
374.500	129.841	0.099
374.600	118.386	0.099
374.700	134.154	0.099
374.800	101.712	0.099
374.900	109.516	0.099
375.000	130.419	0.099
375.100	92.222	0.100
375.200	103.806	0.100
375.300	118.396	0.099
375.400	103.197	0.099
375.500	105.319	0.099
375.600	102.000	0.099
375.700	115.547	0.100
375.800	110.160	0.099
375.900	116.301	0.099
376.000	134.602	0.099
376.100	96.593	0.099
376.200	102.202	0.099
376.300	79.923	0.099
376.400	64.847	0.099
376.500	116.329	0.099
376.600	92.136	0.099
376.700	105.702	0.099
376.800	132.682	0.099
376.900	113.071	0.099
377.000	106.891	0.099
377.100	76.497	0.099
377.200	115.955	0.099
377.300	112.445	0.099
377.400	116.870	0.099
377.500	102.151	0.099
377.600	91.918	0.099
377.700	104.575	0.099
377.800	108.949	0.099
377.900	130.592	0.099
378.000	118.342	0.099
378.100	100.592	0.099
378.200	100.647	0.099
378.300	95.612	0.099
378.400	88.845	0.099
378.500	124.743	0.099
378.600	94.664	0.099
378.700	122.912	0.099
378.800	113.641	0.099
378.900	127.903	0.100
379.000	97.561	0.099
379.100	96.871	0.099
379.200	112.519	0.099
379.300	79.386	0.099
379.400	109.961	0.099
379.500	106.508	0.099
379.600	92.696	0.099
379.700	115.566	0.099
379.800	116.716	0.099
379.900	101.201	0.099
380.000	102.735	0.099
380.100	107.673	0.100
380.200	126.816	0.100
380.300	94.610	0.099
380.400	100.806	0.099
380.500	87.487	0.099
380.600	99.564	0.099
380.700	99.977	0.100
380.800	108.188	0.099
380.900	93.193	0.099
381.000	120.493	0.099
381.100	104.915	0.099
381.200	114.664	0.099
381.300	113.245	0.099
381.400	107.132	0.099
381.500	97.978	0.099
381.600	91.249	0.099
381.700	117.027	0.099
381.800	100.258	0.099
381.900	113.915	0.099
382.000	114.035	0.099
382.100	125.358	0.099
382.200	88.811	0.099
382.300	102.633	0.099
382.400	122.531	0.099
382.500	108.011	0.099
382.600	117.403	0.099
382.700	93.890	0.099
382.800	91.264	0.099
382.900	105.331	0.099
383.000	73.979	0.099
383.100	126.496	0.099
383.200	96.830	0.099
383.300	85.002	0.099
383.400	103.978	0.099
383.500	106.465	0.100
383.600	102.567	0.099
383.700	108.817	0.099
383.800	81.281	0.099
383.900	115.307	0.099
384.000	117.366	0.099
384.100	114.643	0.099
384.200	78.191	0.099
384.300	104.833	0.099
384.400	102.388	0.099
384.500	104.160	0.099
384.600	88.135	0.099
384.700	129.247	0.099
384.800	95.244	0.099
384.900	78.732	0.099
385.000	92.278	0.099
385.100	122.623	0.100
385.200	123.748	0.099
385.300	114.963	0.099
385.400	120.508	0.100
385.500	102.176	0.099
385.600	81.492	0.099
385.700	95.661	0.099
385.800	114.315	0.099
385.900	118.861	0.099
386.000	92.410	0.099
386.100	105.159	0.099
386.200	90.877	0.099
386.300	99.869	0.099
386.400	61.633	0.099
386.500	69.934	0.099
386.600	85.768	0.099
386.700	121.583	0.099
386.800	93.572	0.099
386.900	110.387	0.099
387.000	112.414	0.099
387.100	110.629	0.099
387.200	114.815	0.099
387.300	112.792	0.099
387.400	122.252	0.099
387.500	98.065	0.099
387.600	103.635	0.099
387.700	73.854	0.099
387.800	70.068	0.099
387.900	84.535	0.099
388.000	144.455	0.099
388.100	106.871	0.099
388.200	94.697	0.099
388.300	58.314	0.099
388.400	117.407	0.099
388.500	98.749	0.099
388.600	131.110	0.099
388.700	120.916	0.099
388.800	112.870	0.099
388.900	95.747	0.099
389.000	88.605	0.099
389.100	115.208	0.099
389.200	90.302	0.099
389.300	129.733	0.099
389.400	99.845	0.099
389.500	128.316	0.099
389.600	107.371	0.099
389.700	75.452	0.099
389.800	95.086	0.099
389.900	89.237	0.099
390.000	73.816	0.099
390.100	107.001	0.099
390.200	80.711	0.099
390.300	118.163	0.099
390.400	112.809	0.099
390.500	110.402	0.099
390.600	105.952	0.099
390.700	133.452	0.099
390.800	96.460	0.099
390.900	77.753	0.099
391.000	102.286	0.099
391.100	85.554	0.099
391.200	86.872	0.099
391.300	94.462	0.099
391.400	108.065	0.099
391.500	61.632	0.099
391.600	69.444	0.099
391.700	97.872	0.099
391.800	58.256	0.099
391.900	36.328	0.099
392.000	59.126	0.099
392.100	62.229	0.099
392.200	49.690	0.099
392.300	13.683	0.099
392.400	67.494	0.099
392.500	46.786	0.099
392.600	48.298	0.099
392.700	26.907	0.099
392.800	39.635	0.099
392.900	31.307	0.099
393.000	27.861	0.099
393.100	45.325	0.099
393.200	28.594	0.099
393.300	18.614	0.099
393.400	47.590	0.099
393.500	22.166	0.099
393.600	38.228	0.099
393.700	26.414	0.099
393.800	43.304	0.099
393.900	16.772	0.099
394.000	17.535	0.099
394.100	33.544	0.099
394.200	19.699	0.099
394.300	16.239	0.099
394.400	14.884	0.099
394.500	-17.018	0.099
394.600	8.571	0.099
394.700	-2.684	0.099
394.800	-5.379	0.099
394.900	29.981	0.099
395.000	-5.602	0.099
395.100	20.728	0.099
395.200	-3.659	0.099
395.300	-5.817	0.099
395.400	-1.200	0.099
395.500	-11.046	0.099
395.600	-5.969	0.099
395.700	18.617	0.099
395.800	-1.969	0.099
395.900	-17.150	0.099
396.000	3.638	0.099
396.100	22.470	0.099
396.200	-32.105	0.099
396.300	11.313	0.099
396.400	2.887	0.099
396.500	4.144	0.099
396.600	-1.426	0.099
396.700	-12.072	0.099
396.800	-2.442	0.099
396.900	-7.549	0.099
397.000	-16.861	0.099
397.100	-1.265	0.099
397.200	-4.903	0.099
397.300	-8.496	0.099
397.400	-1.612	0.099
397.500	6.250	0.099
397.600	-7.292	0.099
397.700	-18.826	0.099
397.800	-3.572	0.099
397.900	3.857	0.099
398.000	6.394	0.099
398.100	-29.236	0.099
398.200	3.977	0.099
398.300	11.229	0.099
398.400	-6.845	0.099
398.500	-23.366	0.099
398.600	-33.187	0.099
398.700	-29.244	0.099
398.800	4.125	0.099
398.900	-17.679	0.099
399.000	-10.094	0.099
399.100	-8.590	0.099
399.200	-20.647	0.099
399.300	-1.797	0.099
399.400	1.615	0.099
399.500	-12.164	0.099
399.600	-20.775	0.099
399.700	11.380	0.099
399.800	3.805	0.099
399.900	6.693	0.099
400.000	0.609	0.099
400.100	-26.287	0.099
400.200	9.665	0.099
400.300	-33.144	0.099
400.400	-1.921	0.099
400.500	2.890	0.099
400.600	-13.214	0.099
400.700	25.035	0.099
400.800	5.735	0.099
400.900	-9.559	0.099
401.000	0.893	0.099
401.100	-15.074	0.099
401.200	-28.805	0.099
401.300	-19.856	0.099
401.400	-3.017	0.099
401.500	0.905	0.099
401.600	19.313	0.099
401.700	-2.055	0.099
401.800	-9.582	0.099
401.900	-14.503	0.099
402.000	-12.661	0.099
402.100	-9.327	0.099
402.200	-32.075	0.099
402.300	13.014	0.099
402.400	15.771	0.099
402.500	9.520	0.099
402.600	-21.596	0.099
402.700	-23.734	0.099
402.800	-37.259	0.099
402.900	-5.773	0.099
403.000	15.039	0.099
403.100	3.310	0.099
403.200	-41.408	0.099
403.300	-25.914	0.099
403.400	-10.658	0.099
403.500	23.368	0.099
403.600	14.125	0.099
403.700	1.862	0.099
403.800	-22.645	0.099
403.900	-4.527	0.099
404.000	-5.141	0.099
404.100	-26.434	0.099
404.200	-4.454	0.099
404.300	-18.358	0.099
404.400	-15.634	0.099
404.500	-14.224	0.099
404.600	-2.155	0.099
404.700	-25.442	0.099
404.800	3.420	0.099
404.900	14.280	0.099
405.000	-31.394	0.099
405.100	-0.059	0.099
405.200	0.837	0.099
405.300	-12.636	0.099
405.400	-11.466	0.099
405.500	-28.599	0.099
405.600	-17.565	0.099
405.700	-40.177	0.099
405.800	-28.087	0.099
405.900	-6.692	0.099
406.000	-21.533	0.099
406.100	-17.988	0.099
406.200	-5.684	0.099
406.300	1.377	0.099
406.400	-46.077	0.099
406.500	-15.126	0.099
406.600	1.380	0.099
406.700	-25.876	0.099
406.800	-22.920	0.099
406.900	0.518	0.099
407.000	-52.587	0.099
407.100	-3.355	0.099
407.200	-33.162	0.099
407.300	-1.003	0.099
407.400	9.662	0.099
407.500	-16.289	0.099
407.600	-10.279	0.099
407.700	-16.516	0.099
407.800	-9.862	0.099
407.900	-6.685	0.099
408.000	-32.982	0.099
408.100	-10.203	0.099
408.200	-36.603	0.099
408.300	-26.306	0.099
408.400	-13.257	0.099
408.500	-39.498	0.099
408.600	-18.212	0.099
408.700	-4.626	0.099
408.800	-30.111	0.099
408.900	-69.752	0.099
409.000	-18.854	0.099
409.100	-42.072	0.099
409.200	-23.710	0.099
409.300	-14.213	0.099
409.400	-12.930	0.099
409.500	-22.273	0.099
409.600	-21.114	0.099
409.700	-21.009	0.099
409.800	-51.338	0.099
409.900	-41.536	0.099
410.000	-18.681	0.099
410.100	-15.105	0.099
410.200	-21.737	0.099
410.300	-9.882	0.099
410.400	-43.476	0.099
410.500	-7.483	0.099
410.600	-14.004	0.099
410.700	-7.798	0.099
410.800	-47.421	0.099
410.900	-25.809	0.099
411.000	-7.474	0.099
411.100	-29.266	0.099
411.200	-36.686	0.099
411.300	-26.700	0.099
411.400	-41.447	0.099
411.500	-12.345	0.099
411.600	-9.652	0.099
411.700	-19.498	0.099
411.800	-15.007	0.099
411.900	-11.985	0.099
412.000	-18.158	0.099
412.100	-53.480	0.099
412.200	-25.512	0.099
412.300	-16.646	0.099
412.400	-43.855	0.099
412.500	-44.761	0.099
412.600	-20.611	0.099
412.700	-25.289	0.099
412.800	-47.149	0.099
412.900	-8.922	0.099
413.000	-42.170	0.099
413.100	-43.906	0.099
413.200	-7.402	0.099
413.300	-41.846	0.099
413.400	-42.054	0.099
413.500	8.336	0.099
413.600	-27.555	0.099
413.700	-23.476	0.099
413.800	-16.800	0.099
413.900	-22.556	0.099
414.000	-44.705	0.099
414.100	-7.084	0.099
414.200	-19.149	0.099
414.300	-11.606	0.099
414.400	-21.666	0.099
414.500	-45.680	0.099
414.600	-34.603	0.099
414.700	-31.672	0.099
414.800	-32.989	0.099
414.900	-49.585	0.099
415.000	-25.164	0.099
415.100	-27.221	0.099
415.200	-59.262	0.099
415.300	-28.147	0.099
415.400	-32.593	0.099
415.500	-53.034	0.099
415.600	-45.694	0.099
415.700	-31.281	0.099
415.800	-22.157	0.099
415.900	-59.358	0.099
416.000	-21.830	0.099
416.100	4.643	0.099
416.200	-36.148	0.099
416.300	-26.840	0.099
416.400	-48.740	0.099
416.500	-16.179	0.099
416.600	-6.709	0.099
416.700	-51.123	0.099
416.800	-30.633	0.099
416.900	-49.630	0.099
417.000	-19.906	0.099
417.100	-31.703	0.099
417.200	-33.748	0.099
417.300	-33.606	0.099
417.400	-31.150	0.099
417.500	-50.936	0.099
417.600	-21.597	0.099
417.700	-1.145	0.099
417.800	-31.775	0.099
417.900	-45.833	0.099
418.000	-79.619	0.099
418.100	-42.092	0.099
418.200	-27.799	0.099
418.300	-27.739	0.099
418.400	-34.158	0.099
418.500	-32.912	0.099
418.600	-53.086	0.099
418.700	-72.805	0.099
418.800	-39.533	0.099
418.900	-42.103	0.099
419.000	-35.001	0.099
419.100	-49.716	0.099
419.200	-25.731	0.099
419.300	-48.164	0.099
419.400	-41.741	0.099
419.500	-35.859	0.099
419.600	-36.221	0.099
419.700	-32.641	0.099
419.800	-10.585	0.099
419.900	-38.836	0.099
420.000	-32.897	0.099
420.100	-26.294	0.099
420.200	-23.349	0.099
420.300	-25.401	0.099
420.400	-30.549	0.099
420.500	-12.956	0.099
420.600	-18.408	0.099
420.700	-35.562	0.099
420.800	-50.189	0.099
420.900	-29.168	0.099
421.000	-58.784	0.099
421.100	-27.744	0.099
421.200	-37.101	0.099
421.300	-37.502	0.099
421.400	-39.448	0.099
421.500	-31.557	0.099
421.600	-25.804	0.099
421.700	-40.613	0.099
421.800	-31.946	0.099
421.900	-30.593	0.099
422.000	-40.740	0.099
422.100	-24.779	0.099
422.200	-71.094	0.099
422.300	-30.681	0.099
422.400	-27.816	0.099
422.500	-57.604	0.099
422.600	-27.544	0.099
422.700	-54.980	0.099
422.800	-36.895	0.099
422.900	-57.490	0.099
423.000	-31.960	0.099
423.100	-35.375	0.099
423.200	-31.956	0.099
423.300	-32.962	0.099
423.400	-25.101	0.099
423.500	-40.248	0.099
423.600	-23.727	0.099
423.700	-31.386	0.099
423.800	-46.515	0.099
423.900	-27.280	0.099
424.000	-47.594	0.099
424.100	-51.885	0.099
424.200	-54.896	0.099
424.300	-49.644	0.099
424.400	-36.891	0.099
424.500	-55.548	0.099
424.600	-44.149	0.099
424.700	-9.539	0.099
424.800	-61.151	0.099
424.900	-47.897	0.099
425.000	-31.974	0.099
425.100	-39.503	0.099
425.200	-52.968	0.099
425.300	-36.890	0.099
425.400	-39.885	0.099
425.500	-57.338	0.099
425.600	-25.333	0.099
425.700	-58.464	0.099
425.800	-46.614	0.099
425.900	-36.045	0.099
426.000	-41.075	0.099
426.100	-47.859	0.099
426.200	-47.029	0.099
426.300	-30.649	0.099
426.400	-44.910	0.099
426.500	-27.160	0.099
426.600	-39.895	0.099
426.700	-43.827	0.099
426.800	-61.630	0.099
426.900	-56.721	0.099
427.000	-50.166	0.099
427.100	-50.836	0.099
427.200	-32.246	0.099
427.300	-42.204	0.099
427.400	-18.830	0.099
427.500	-43.041	0.099
427.600	-51.401	0.099
427.700	-40.693	0.099
427.800	-31.552	0.099
427.900	-54.356	0.099
428.000	-45.150	0.099
428.100	-50.537	0.099
428.200	-58.546	0.099
428.300	-14.267	0.099
428.400	-56.457	0.099
428.500	-44.230	0.099
428.600	-65.828	0.099
428.700	-44.674	0.099
428.800	-61.670	0.099
428.900	-45.733	0.099
429.000	-43.662	0.099
429.100	-45.534	0.099
429.200	-18.958	0.099
429.300	-60.937	0.099
429.400	-55.389	0.099
429.500	-45.071	0.099
429.600	-18.199	0.099
429.700	-50.000	0.099
429.800	-16.173	0.099
429.900	-36.518	0.099
430.000	-9.855	0.099
430.100	-64.509	0.099
430.200	-67.524	0.099
430.300	-59.115	0.099
430.400	-56.236	0.099
430.500	-40.242	0.099
430.600	-56.976	0.099
430.700	-54.414	0.099
430.800	-56.329	0.099
430.900	-26.094	0.099
431.000	-24.194	0.099
431.100	-39.883	0.099
431.200	-24.844	0.099
431.300	-24.807	0.099
431.400	-48.239	0.099
431.500	-47.046	0.099
431.600	-30.174	0.099
431.700	-63.522	0.099
431.800	-34.821	0.099
431.900	-32.198	0.099
432.000	-56.987	0.099
432.100	-65.287	0.099
432.200	-39.257	0.099
432.300	-38.116	0.099
432.400	-48.891	0.099
432.500	-41.894	0.099
432.600	-42.983	0.099
432.700	-48.251	0.099
432.800	-50.683	0.099
432.900	-43.151	0.099
433.000	-28.321	0.099
433.100	-38.922	0.099
433.200	-45.014	0.099
433.300	-29.104	0.099
433.400	-32.823	0.099
433.500	-32.591	0.099
433.600	-68.675	0.099
433.700	-32.344	0.099
433.800	-21.113	0.099
433.900	-44.331	0.099
434.000	-34.792	0.099
434.100	-42.674	0.099
434.200	-36.934	0.099
434.300	-43.430	0.099
434.400	-43.813	0.099
434.500	-61.654	0.099
434.600	-53.868	0.099
434.700	-44.068	0.099
434.800	-30.692	0.099
434.900	-71.411	0.099
435.000	-27.214	0.099
435.100	-46.693	0.099
435.200	-47.156	0.099
435.300	-27.770	0.099
435.400	-22.341	0.099
435.500	-51.222	0.099
435.600	-56.638	0.099
435.700	-60.294	0.099
435.800	-48.341	0.099
435.900	-58.050	0.099
436.000	-27.723	0.099
436.100	-31.346	0.099
436.200	-14.787	0.099
436.300	-54.175	0.099
436.400	-41.570	0.099
436.500	-41.476	0.099
436.600	-49.572	0.099
436.700	-59.896	0.099
436.800	-44.294	0.099
436.900	-58.873	0.099
437.000	-46.401	0.099
437.100	-28.318	0.099
437.200	-46.997	0.099
437.300	-38.726	0.099
437.400	-44.287	0.099
437.500	-54.929	0.099
437.600	-26.748	0.099
437.700	-33.858	0.099
437.800	-52.640	0.099
437.900	-55.265	0.099
438.000	-77.954	0.099
438.100	-41.903	0.099
438.200	-36.811	0.099
438.300	-49.827	0.099
438.400	-29.550	0.099
438.500	-40.957	0.099
438.600	-35.443	0.099
438.700	-58.091	0.099
438.800	-28.263	0.099
438.900	-52.822	0.099
439.000	-71.154	0.099
439.100	-27.051	0.099
439.200	-45.944	0.099
439.300	-40.928	0.099
439.400	-50.359	0.099
439.500	-37.633	0.099
439.600	-33.753	0.099
439.700	-34.840	0.099
439.800	-17.982	0.099
439.900	-43.150	0.099
440.000	-51.288	0.099
440.100	-42.992	0.099
440.200	-32.446	0.099
440.300	-63.756	0.099
440.400	-36.227	0.099
440.500	-44.511	0.099
440.600	-28.380	0.099
440.700	-40.402	0.099
440.800	-51.895	0.099
440.900	-54.264	0.099
441.000	-43.108	0.099
441.100	-33.697	0.099
441.200	-40.391	0.099
441.300	-73.957	0.099
441.400	-55.352	0.099
441.500	-54.309	0.099
441.600	-15.211	0.099
441.700	-21.424	0.099
441.800	-37.364	0.099
441.900	-33.672	0.099
442.000	-46.305	0.099
442.100	-50.582	0.099
442.200	-45.252	0.099
442.300	-50.322	0.099
442.400	-32.983	0.099
442.500	-30.279	0.099
442.600	-32.996	0.099
442.700	-44.566	0.099
442.800	-32.073	0.099
442.900	-51.567	0.099
443.000	-49.270	0.099
443.100	-41.647	0.099
443.200	-47.160	0.099
443.300	-50.881	0.099
443.400	-40.142	0.099
443.500	-26.812	0.099
443.600	-50.094	0.099
443.700	-52.301	0.099
443.800	-21.288	0.099
443.900	-47.614	0.099
444.000	-26.616	0.099
444.100	-42.682	0.099
444.200	-58.607	0.099
444.300	-35.505	0.099
444.400	-27.899	0.099
444.500	-47.952	0.099
444.600	-48.732	0.099
444.700	-38.935	0.099
444.800	-56.245	0.099
444.900	-24.864	0.099
445.000	-50.261	0.099
445.100	-37.349	0.099
445.200	-69.639	0.099
445.300	-24.180	0.099
445.400	-23.123	0.099
445.500	-17.283	0.099
445.600	-59.489	0.099
445.700	-32.670	0.099
445.800	-56.708	0.099
445.900	-31.015	0.099
446.000	-33.665	0.099
446.100	-45.492	0.099
446.200	-48.187	0.099
446.300	-60.929	0.099
446.400	-16.710	0.099
446.500	-29.158	0.099
446.600	-53.029	0.099
446.700	-65.812	0.099
446.800	-35.113	0.099
446.900	-9.525	0.099
447.000	-41.323	0.099
447.100	-50.150	0.099
447.200	-36.791	0.099
447.300	-47.641	0.099
447.400	-32.931	0.099
447.500	-30.599	0.100
447.600	-59.950	0.099
447.700	-69.362	0.099
447.800	-32.967	0.099
447.900	-44.451	0.099
448.000	-24.853	0.099
448.100	-56.874	0.099
448.200	-41.144	0.099
448.300	-5.782	0.099
448.400	-28.405	0.099
448.500	-51.300	0.099
448.600	-77.325	0.099
448.700	-31.890	0.099
448.800	-50.613	0.099
448.900	-37.945	0.099
449.000	-64.424	0.099
449.100	-58.629	0.099
449.200	-47.853	0.099
449.300	-65.097	0.099
449.400	-18.847	0.099
449.500	-18.323	0.099
449.600	-16.207	0.099
449.700	-54.044	0.099
449.800	-53.887	0.099
449.900	-49.989	0.099
450.000	-32.437	0.099
450.100	-32.856	0.099
450.200	-40.961	0.099
450.300	-46.749	0.099
450.400	-30.297	0.099
450.500	-54.752	0.099
450.600	-31.895	0.099
450.700	-40.988	0.099
450.800	-41.215	0.099
450.900	-14.643	0.099
451.000	-52.704	0.099
451.100	-34.562	0.099
451.200	-59.917	0.099
451.300	-35.203	0.099
451.400	-22.552	0.099
451.500	-36.043	0.099
451.600	-31.031	0.099
451.700	-44.398	0.099
451.800	-48.756	0.099
451.900	-33.630	0.099
452.000	-29.144	0.099
452.100	-30.613	0.099
452.200	-47.042	0.099
452.300	-56.569	0.099
452.400	-32.186	0.099
452.500	-43.090	0.099
452.600	-44.653	0.099
452.700	-33.215	0.099
452.800	-46.204	0.099
452.900	-29.791	0.099
453.000	-35.886	0.099
453.100	-39.824	0.099
453.200	-31.010	0.099
453.300	-44.411	0.099
453.400	-42.742	0.099
453.500	-57.196	0.099
453.600	-31.965	0.099
453.700	-45.279	0.099
453.800	-34.218	0.099
453.900	-38.545	0.099
454.000	-49.347	0.099
454.100	-66.516	0.099
454.200	-51.723	0.099
454.300	-14.378	0.099
454.400	-33.237	0.099
454.500	-34.185	0.099
454.600	-48.411	0.099
454.700	-69.949	0.099
454.800	-35.500	0.099
454.900	-41.723	0.099
455.000	-21.637	0.099
455.100	-36.663	0.099
455.200	-6.141	0.099
455.300	-28.095	0.099
455.400	-56.554	0.099
455.500	-33.395	0.099
455.600	-38.299	0.099
455.700	-40.615	0.099
455.800	-29.013	0.099
455.900	-29.354	0.099
456.000	-70.946	0.099
456.100	-28.950	0.099
456.200	-38.436	0.099
456.300	-44.466	0.099
456.400	-30.748	0.099
456.500	-21.913	0.099
456.600	-24.808	0.099
456.700	-70.129	0.099
456.800	-44.082	0.099
456.900	-38.288	0.099
457.000	-47.685	0.099
457.100	-30.768	0.099
457.200	-45.437	0.099
457.300	-44.815	0.099
457.400	-39.288	0.099
457.500	-36.216	0.099
457.600	-36.168	0.099
457.700	-44.016	0.099
457.800	-29.811	0.099
457.900	-31.536	0.099
458.000	-22.029	0.099
458.100	-49.189	0.099
458.200	-51.310	0.099
458.300	-68.599	0.099
458.400	-15.484	0.099
458.500	-27.952	0.099
458.600	-46.471	0.099
458.700	-32.354	0.099
458.800	-52.668	0.099
458.900	-51.570	0.099
459.000	-37.660	0.099
459.100	-34.113	0.099
459.200	-65.421	0.099
459.300	-26.909	0.099
459.400	-43.664	0.099
459.500	-49.353	0.099
459.600	-30.381	0.099
459.700	-59.842	0.099
459.800	-46.505	0.099
459.900	-29.712	0.099
460.000	-23.864	0.099
460.100	-19.389	0.099
460.200	-41.671	0.099
460.300	-33.911	0.099
460.400	-44.020	0.099
460.500	-21.596	0.099
460.600	-28.991	0.099
460.700	-34.794	0.099
460.800	-36.839	0.099
460.900	-22.326	0.099
461.000	-43.556	0.099
461.100	-39.488	0.099
461.200	-35.023	0.099
461.300	-33.320	0.099
461.400	-46.073	0.099
461.500	-40.225	0.099
461.600	-16.017	0.099
461.700	-20.188	0.099
461.800	-22.918	0.099
461.900	-39.601	0.099
462.000	-66.291	0.099
462.100	-36.517	0.099
462.200	-49.942	0.099
462.300	-49.013	0.099
462.400	-46.782	0.099
462.500	-23.211	0.099
462.600	-43.710	0.099
462.700	-35.769	0.099
462.800	-31.115	0.099
462.900	-51.559	0.099
463.000	-91.419	0.099
463.100	-35.559	0.099
463.200	-8.361	0.099
463.300	-9.731	0.099
463.400	-54.183	0.099
463.500	-55.555	0.099
463.600	-32.920	0.099
463.700	-22.979	0.099
463.800	-37.225	0.099
463.900	-28.763	0.099
464.000	-41.882	0.099
464.100	-9.049	0.099
464.200	-34.633	0.099
464.300	-65.293	0.099
464.400	-51.449	0.099
464.500	-28.844	0.099
464.600	-49.095	0.099
464.700	-33.709	0.099
464.800	-51.027	0.099
464.900	-65.237	0.099
465.000	-21.490	0.099
465.100	-33.790	0.099
465.200	-33.865	0.099
465.300	-24.898	0.099
465.400	-45.643	0.099
465.500	-34.737	0.099
465.600	-33.142	0.099
465.700	-27.175	0.099
465.800	-34.357	0.099
465.900	-54.676	0.099
466.000	-60.444	0.099
466.100	-61.394	0.099
466.200	-38.196	0.099
466.300	-48.112	0.099
466.400	-19.999	0.099
466.500	-49.203	0.099
466.600	-46.789	0.099
466.700	-56.731	0.099
466.800	-43.356	0.099
466.900	-30.602	0.099
467.000	-17.477	0.099
467.100	-28.767	0.099
467.200	-58.535	0.099
467.300	-49.799	0.099
467.400	-47.749	0.099
467.500	-29.748	0.099
467.600	-23.468	0.099
467.700	-20.185	0.099
467.800	-52.221	0.099
467.900	-35.115	0.099
468.000	-18.919	0.099
468.100	-43.703	0.099
468.200	-53.738	0.099
468.300	-45.402	0.099
468.400	-40.259	0.099
468.500	-19.765	0.099
468.600	-58.551	0.099
468.700	-39.901	0.099
468.800	-36.877	0.099
468.900	-36.008	0.099
469.000	-33.361	0.099
469.100	-65.389	0.099
469.200	-29.268	0.099
469.300	-22.607	0.099
469.400	-46.140	0.099
469.500	-43.596	0.099
469.600	-43.414	0.099
469.700	-41.513	0.099
469.800	-28.439	0.099
469.900	-34.704	0.099
470.000	-37.651	0.099
470.100	-50.039	0.099
470.200	-22.858	0.099
470.300	-40.163	0.099
470.400	-44.543	0.099
470.500	-58.575	0.099
470.600	-13.087	0.099
470.700	-37.270	0.099
470.800	-22.650	0.099
470.900	-44.772	0.099
471.000	-32.779	0.099
471.100	-23.598	0.099
471.200	-48.094	0.099
471.300	-45.736	0.099
471.400	-36.286	0.099
471.500	-17.956	0.099
471.600	-43.792	0.099
471.700	-41.664	0.099
471.800	-64.540	0.099
471.900	-32.216	0.099
472.000	-43.197	0.099
472.100	-37.604	0.099
472.200	-21.078	0.099
472.300	-57.047	0.099
472.400	-35.187	0.099
472.500	-55.625	0.099
472.600	-28.273	0.099
472.700	-12.977	0.099
472.800	-30.060	0.099
472.900	-25.769	0.099
473.000	-48.108	0.099
473.100	-36.947	0.099
473.200	-39.964	0.099
473.300	-37.347	0.099
473.400	-36.215	0.099
473.500	-28.545	0.099
473.600	-21.558	0.099
473.700	-24.367	0.099
473.800	-32.949	0.099
473.900	-28.552	0.099
474.000	-48.446	0.099
474.100	-44.371	0.099
474.200	-61.134	0.099
474.300	-39.083	0.099
474.400	-47.726	0.099
474.500	-33.027	0.099
474.600	-12.703	0.099
474.700	-49.307	0.099
474.800	-35.880	0.099
474.900	-62.948	0.099
475.000	-36.988	0.099
475.100	-41.979	0.099
475.200	-35.170	0.099
475.300	-9.281	0.099
475.400	-32.882	0.099
475.500	-30.041	0.099
475.600	-23.896	0.099
475.700	-35.932	0.099
475.800	-45.008	0.099
475.900	-50.683	0.099
476.000	-42.903	0.099
476.100	-47.421	0.099
476.200	-41.146	0.099
476.300	-34.643	0.099
476.400	-12.954	0.099
476.500	-19.242	0.099
476.600	-23.079	0.099
476.700	-8.658	0.099
476.800	-36.766	0.099
476.900	-45.141	0.099
477.000	-29.361	0.099
477.100	-64.263	0.099
477.200	-44.108	0.099
477.300	-37.103	0.099
477.400	-32.149	0.099
477.500	-33.162	0.099
477.600	-24.191	0.099
477.700	-39.316	0.099
477.800	-30.831	0.099
477.900	-45.766	0.099
478.000	-50.151	0.099
478.100	-4.234	0.099
478.200	-5.746	0.099
478.300	-35.067	0.099
478.400	-49.009	0.099
478.500	-6.331	0.099
478.600	-36.299	0.099
478.700	-42.026	0.099
478.800	-46.173	0.099
478.900	-22.000	0.099
479.000	-45.812	0.099
479.100	-32.458	0.099
479.200	-32.841	0.099
479.300	-27.979	0.099
479.400	-36.435	0.099
479.500	-27.395	0.099
479.600	-17.543	0.099
479.700	-19.912	0.099
479.800	-55.142	0.099
479.900	7.303	0.099
480.000	-46.780	0.099
480.100	-54.982	0.099
480.200	-68.843	0.099
480.300	-43.416	0.099
480.400	-26.625	0.099
480.500	-29.668	0.099
480.600	-47.172	0.099
480.700	-34.592	0.099
480.800	-3.319	0.099
480.900	-12.247	0.099
481.000	-50.344	0.099
481.100	-26.019	0.099
481.200	-27.684	0.099
481.300	-12.083	0.099
481.400	-27.265	0.099
481.500	-29.819	0.099
481.600	-25.928	0.099
481.700	-4.212	0.099
481.800	-4.616	0.099
481.900	4.109	0.099
482.000	18.309	0.099
482.100	8.321	0.099
482.200	0.413	0.099
482.300	2.271	0.099
482.400	21.497	0.099
482.500	19.770	0.099
482.600	4.582	0.099
482.700	23.948	0.099
482.800	7.621	0.099
482.900	39.699	0.099
483.000	23.023	0.099
483.100	10.739	0.099
483.200	28.689	0.099
483.300	15.659	0.099
483.400	65.477	0.099
483.500	32.637	0.099
483.600	38.467	0.099
483.700	7.179	0.099
483.800	13.049	0.099
483.900	62.432	0.099
484.000	6.348	0.099
484.100	22.646	0.099
484.200	44.921	0.099
484.300	24.004	0.099
484.400	48.401	0.099
484.500	35.514	0.099
484.600	18.297	0.099
484.700	36.910	0.099
484.800	54.517	0.099
484.900	18.547	0.099
485.000	17.402	0.099
485.100	45.163	0.099
485.200	19.147	0.099
485.300	16.682	0.099
485.400	31.653	0.099
485.500	20.118	0.099
485.600	20.359	0.099
485.700	26.799	0.099
485.800	0.194	0.099
485.900	9.753	0.099
486.000	44.214	0.099
486.100	39.788	0.099
486.200	46.302	0.099
486.300	37.988	0.099
486.400	22.010	0.099
486.500	44.154	0.099
486.600	0.799	0.099
486.700	43.199	0.099
486.800	14.337	0.099
486.900	32.607	0.099
487.000	35.381	0.099
487.100	26.508	0.099
487.200	36.112	0.099
487.300	41.225	0.099
487.400	46.317	0.099
487.500	48.339	0.099
487.600	41.330	0.099
487.700	32.390	0.099
487.800	13.688	0.099
487.900	32.054	0.099
488.000	24.100	0.099
488.100	49.939	0.099
488.200	27.773	0.099
488.300	13.214	0.099
488.400	13.698	0.099
488.500	27.283	0.099
488.600	40.306	0.099
488.700	27.098	0.099
488.800	37.096	0.099
488.900	73.033	0.099
489.000	45.289	0.099
489.100	72.420	0.099
489.200	15.888	0.099
489.300	36.536	0.099
489.400	44.002	0.099
489.500	36.542	0.099
489.600	28.976	0.099
489.700	44.163	0.099
489.800	35.656	0.099
489.900	26.312	0.099
490.000	19.852	0.099
490.100	57.870	0.099
490.200	59.257	0.099
490.300	57.042	0.099
490.400	57.095	0.099
490.500	36.188	0.099
490.600	58.487	0.099
490.700	64.895	0.099
490.800	25.987	0.099
490.900	48.234	0.099
491.000	47.175	0.099
491.100	69.267	0.099
491.200	39.672	0.099
491.300	77.157	0.099
491.400	47.103	0.099
491.500	53.370	0.099
491.600	41.231	0.099
491.700	62.706	0.099
491.800	36.333	0.099
491.900	65.464	0.099
492.000	76.211	0.099
492.100	68.489	0.099
492.200	79.938	0.099
492.300	47.982	0.099
492.400	57.882	0.099
492.500	66.555	0.099
492.600	56.086	0.099
492.700	69.109	0.099
492.800	74.714	0.099
492.900	80.225	0.099
493.000	64.566	0.099
493.100	80.653	0.099
493.200	69.092	0.099
493.300	74.271	0.099
493.400	59.709	0.099
493.500	54.248	0.099
493.600	94.773	0.099
493.700	75.700	0.099
493.800	48.241	0.099
493.900	95.389	0.099
494.000	93.919	0.099
494.100	104.185	0.099
494.200	41.327	0.099
494.300	78.423	0.099
494.400	84.902	0.099
494.500	86.498	0.099
494.600	75.235	0.099
494.700	68.932	0.099
494.800	101.071	0.099
494.900	95.742	0.099
495.000	55.727	0.099
495.100	82.977	0.099
495.200	85.015	0.099
495.300	65.184	0.099
495.400	80.674	0.099
495.500	103.364	0.099
495.600	95.613	0.099
495.700	84.590	0.099
495.800	94.802	0.099
495.900	102.152	0.099
496.000	91.583	0.099
496.100	125.635	0.099
496.200	104.873	0.099
496.300	104.351	0.099
496.400	87.941	0.099
496.500	116.294	0.099
496.600	111.293	0.099
496.700	101.324	0.099
496.800	97.970	0.099
496.900	102.505	0.099
497.000	87.891	0.099
497.100	98.540	0.099
497.200	81.554	0.099
497.300	122.611	0.099
497.400	95.807	0.099
497.500	100.034	0.099
497.600	122.300	0.099
497.700	112.109	0.099
497.800	92.771	0.099
497.900	126.114	0.099
498.000	136.035	0.099
498.100	103.799	0.099
498.200	134.625	0.099
498.300	118.357	0.099
498.400	106.280	0.099
498.500	125.017	0.099
498.600	123.601	0.099
498.700	141.069	0.099
498.800	92.152	0.099
498.900	120.772	0.100
499.000	110.879	0.099
499.100	111.339	0.099
499.200	84.382	0.099
499.300	129.956	0.099
499.400	131.885	0.099
499.500	130.894	0.099
499.600	131.276	0.099
499.700	113.496	0.099
499.800	117.751	0.099
499.900	115.017	0.099
500.000	128.464	0.099
500.100	129.658	0.099
500.200	123.538	0.099
500.300	107.022	0.099
500.400	130.636	0.099
500.500	117.997	0.100
500.600	93.151	0.099
500.700	102.935	0.099
500.800	111.375	0.099
500.900	105.552	0.099
501.000	118.485	0.099
501.100	132.065	0.099
501.200	116.653	0.099
501.300	141.984	0.099
501.400	133.489	0.099
501.500	144.309	0.099
501.600	125.325	0.100
501.700	124.359	0.099
501.800	127.453	0.099
501.900	109.048	0.099
502.000	121.159	0.099
502.100	139.486	0.099
502.200	124.058	0.099
502.300	140.661	0.099
502.400	105.972	0.099
502.500	102.855	0.099
502.600	113.995	0.099
502.700	134.537	0.099
502.800	135.793	0.099
502.900	134.892	0.099
503.000	126.310	0.099
503.100	114.075	0.099
503.200	126.171	0.099
503.300	139.620	0.099
503.400	130.454	0.099
503.500	124.687	0.099
503.600	123.500	0.099
503.700	124.284	0.099
503.800	125.108	0.099
503.900	132.785	0.099
504.000	131.409	0.099
504.100	91.123	0.099
504.200	134.522	0.099
504.300	102.416	0.099
504.400	135.668	0.099
504.500	129.852	0.099
504.600	98.507	0.099
504.700	128.449	0.099
504.800	124.764	0.099
504.900	144.326	0.099
505.000	125.429	0.099
505.100	130.916	0.099
505.200	118.949	0.099
505.300	111.614	0.099
505.400	127.165	0.099
505.500	116.722	0.099
505.600	125.852	0.099
505.700	145.083	0.099
505.800	118.522	0.099
505.900	115.993	0.099
506.000	99.925	0.099
506.100	130.203	0.099
506.200	144.104	0.099
506.300	117.809	0.099
506.400	117.807	0.099
506.500	123.910	0.099
506.600	106.712	0.099
506.700	93.399	0.099
506.800	137.626	0.099
506.900	121.405	0.099
507.000	150.253	0.099
507.100	143.002	0.099
507.200	129.893	0.099
507.300	103.377	0.099
507.400	94.454	0.099
507.500	97.423	0.099
507.600	157.250	0.099
507.700	167.418	0.099
507.800	133.218	0.099
507.900	151.912	0.099
508.000	94.230	0.099
508.100	131.921	0.099
508.200	119.018	0.099
508.300	130.490	0.099
508.400	138.651	0.099
508.500	109.703	0.099
508.600	127.577	0.099
508.700	110.827	0.099
508.800	138.404	0.099
508.900	139.176	0.099
509.000	124.215	0.099
509.100	117.743	0.099
509.200	105.106	0.099
509.300	109.558	0.099
509.400	138.960	0.099
509.500	100.447	0.099
509.600	109.099	0.099
509.700	115.924	0.099
509.800	119.790	0.099
509.900	113.959	0.099
510.000	126.888	0.099
510.100	115.971	0.099
510.200	113.859	0.099
510.300	112.175	0.099
510.400	115.984	0.099
510.500	142.331	0.099
510.600	125.845	0.099
510.700	126.237	0.099
510.800	111.955	0.099
510.900	123.218	0.099
511.000	114.965	0.099
511.100	141.999	0.099
511.200	108.219	0.099
511.300	107.560	0.099
511.400	112.050	0.099
511.500	109.139	0.099
511.600	88.979	0.099
511.700	127.003	0.099
511.800	89.873	0.099
511.900	111.420	0.099
512.000	97.208	0.099
512.100	127.093	0.099
512.200	128.420	0.099
512.300	108.988	0.099
512.400	146.914	0.099
512.500	99.508	0.099
512.600	121.753	0.099
512.700	130.585	0.099
512.800	102.655	0.099
512.900	91.610	0.099
513.000	113.907	0.099
513.100	110.051	0.099
513.200	155.822	0.099
513.300	125.253	0.099
513.400	105.732	0.099
513.500	116.718	0.099
513.600	138.173	0.099
513.700	108.583	0.099
513.800	116.598	0.099
513.900	111.387	0.099
514.000	124.802	0.099
514.100	102.971	0.099
514.200	120.388	0.099
514.300	94.786	0.099
514.400	107.047	0.099
514.500	118.351	0.099
514.600	104.887	0.099
514.700	116.596	0.099
514.800	128.017	0.099
514.900	136.313	0.099
515.000	78.773	0.099
515.100	130.059	0.099
515.200	148.036	0.099
515.300	118.145	0.099
515.400	88.520	0.099
515.500	103.608	0.099
515.600	114.957	0.099
515.700	130.738	0.099
515.800	99.291	0.099
515.900	127.183	0.099
516.000	119.636	0.099
516.100	95.452	0.099
516.200	91.133	0.099
516.300	102.161	0.099
516.400	132.514	0.099
516.500	117.925	0.100
516.600	117.421	0.099
516.700	118.548	0.099
516.800	140.305	0.099
516.900	112.227	0.099
517.000	106.984	0.099
517.100	95.345	0.099
517.200	107.244	0.099
517.300	84.894	0.099
517.400	156.531	0.099
517.500	117.514	0.099
517.600	94.622	0.099
517.700	134.348	0.099
517.800	116.557	0.099
517.900	114.294	0.099
518.000	99.099	0.099
518.100	125.848	0.099
518.200	104.165	0.099
518.300	99.325	0.099
518.400	127.771	0.099
518.500	110.182	0.099
518.600	113.175	0.099
518.700	93.724	0.099
518.800	93.526	0.099
518.900	121.316	0.099
519.000	129.460	0.099
519.100	102.574	0.099
519.200	107.657	0.099
519.300	107.553	0.099
519.400	101.674	0.099
519.500	111.656	0.099
519.600	111.024	0.099
519.700	98.957	0.099
519.800	138.511	0.099
519.900	105.620	0.099
520.000	119.396	0.099
520.100	135.806	0.099
520.200	121.021	0.099
520.300	106.359	0.099
520.400	93.709	0.099
520.500	119.454	0.099
520.600	128.257	0.099
520.700	119.886	0.099
520.800	135.152	0.099
520.900	115.215	0.099
521.000	114.883	0.099
521.100	99.086	0.099
521.200	105.056	0.099
521.300	124.783	0.099
521.400	83.552	0.099
521.500	94.537	0.099
521.600	112.374	0.099
521.700	127.771	0.099
521.800	93.007	0.099
521.900	120.505	0.099
522.000	121.989	0.099
522.100	114.475	0.099
522.200	114.951	0.099
522.300	135.142	0.099
522.400	111.629	0.099
522.500	98.182	0.099
522.600	110.547	0.099
522.700	121.268	0.099
522.800	120.908	0.099
522.900	117.022	0.099
523.000	107.170	0.099
523.100	80.690	0.099
523.200	119.889	0.099
523.300	100.819	0.099
523.400	136.835	0.100
523.500	111.152	0.099
523.600	101.393	0.099
523.700	104.096	0.099
523.800	96.604	0.099
523.900	101.979	0.099
524.000	103.194	0.099
524.100	125.083	0.099
524.200	128.880	0.099
524.300	128.805	0.099
524.400	85.637	0.099
524.500	111.670	0.099
524.600	102.290	0.099
524.700	122.299	0.099
524.800	121.780	0.099
524.900	94.778	0.099
525.000	69.022	0.099
525.100	113.253	0.099
525.200	100.794	0.099
525.300	118.260	0.099
525.400	113.786	0.099
525.500	116.716	0.099
525.600	122.921	0.099
525.700	87.863	0.099
525.800	88.329	0.099
525.900	128.843	0.099
526.000	100.861	0.099
526.100	108.770	0.099
526.200	103.849	0.099
526.300	102.784	0.099
526.400	90.879	0.099
526.500	110.928	0.099
526.600	146.827	0.099
526.700	99.337	0.099
526.800	115.743	0.099
526.900	99.996	0.099
527.000	90.185	0.099
527.100	127.755	0.099
527.200	109.125	0.099
527.300	107.250	0.099
527.400	101.399	0.099
527.500	100.243	0.099
527.600	94.330	0.099
527.700	106.389	0.099
527.800	115.102	0.099
527.900	133.226	0.099
528.000	114.908	0.099
528.100	78.222	0.099
528.200	100.811	0.099
528.300	103.432	0.099
528.400	114.393	0.099
528.500	126.282	0.099
528.600	150.751	0.099
528.700	110.993	0.099
528.800	116.083	0.099
528.900	91.976	0.099
529.000	117.553	0.099
529.100	86.794	0.099
529.200	118.910	0.099
529.300	96.000	0.099
529.400	109.854	0.099
529.500	126.785	0.099
529.600	130.545	0.099
529.700	122.251	0.099
529.800	117.073	0.099
529.900	70.621	0.099
530.000	100.954	0.099
530.100	105.720	0.099
530.200	78.748	0.099
530.300	117.596	0.099
530.400	105.468	0.099
530.500	121.179	0.099
530.600	115.770	0.099
530.700	106.579	0.099
530.800	103.865	0.099
530.900	78.403	0.099
531.000	117.257	0.099
531.100	105.067	0.099
531.200	95.738	0.099
531.300	131.763	0.099
531.400	115.545	0.099
531.500	117.249	0.099
531.600	90.220	0.099
531.700	110.200	0.099
531.800	115.261	0.099
531.900	59.223	0.099
532.000	130.815	0.099
532.100	104.486	0.099
532.200	109.758	0.099
532.300	106.279	0.099
532.400	108.604	0.099
532.500	142.837	0.099
532.600	118.901	0.099
532.700	84.387	0.099
532.800	95.855	0.099
532.900	89.005	0.099
533.000	100.475	0.099
533.100	92.164	0.099
533.200	87.115	0.099
533.300	127.585	0.099
533.400	113.063	0.099
533.500	121.381	0.099
533.600	110.405	0.099
533.700	92.018	0.099
533.800	110.542	0.099
533.900	114.844	0.099
534.000	129.317	0.099
534.100	104.662	0.099
534.200	97.152	0.099
534.300	135.563	0.099
534.400	101.832	0.099
534.500	116.166	0.099
534.600	117.393	0.099
534.700	108.267	0.099
534.800	104.069	0.099
534.900	132.941	0.100
535.000	116.359	0.099
535.100	106.056	0.099
535.200	94.417	0.099
535.300	118.135	0.099
535.400	117.499	0.099
535.500	108.315	0.099
535.600	106.580	0.099
535.700	117.393	0.099
535.800	129.390	0.099
535.900	104.048	0.099
536.000	104.199	0.099
536.100	99.729	0.099
536.200	100.221	0.099
536.300	111.278	0.099
536.400	104.644	0.099
536.500	112.219	0.099
536.600	100.268	0.099
536.700	83.483	0.099
536.800	116.959	0.099
536.900	125.826	0.099
537.000	85.024	0.099
537.100	118.530	0.099
537.200	96.547	0.099
537.300	141.212	0.099
537.400	106.029	0.099
537.500	98.229	0.099
537.600	77.591	0.099
537.700	109.605	0.099
537.800	125.146	0.099
537.900	106.068	0.099
538.000	91.759	0.099
538.100	90.649	0.099
538.200	96.254	0.099
538.300	101.019	0.099
538.400	105.114	0.099
538.500	109.601	0.099
538.600	112.667	0.099
538.700	64.998	0.099
538.800	127.723	0.099
538.900	116.979	0.099
539.000	92.295	0.099
539.100	114.246	0.099
539.200	90.625	0.099
539.300	99.414	0.099
539.400	100.521	0.099
539.500	121.267	0.099
539.600	96.287	0.099
539.700	115.304	0.099
539.800	101.371	0.099
539.900	97.520	0.099
540.000	117.759	0.099
540.100	105.460	0.099
540.200	100.817	0.099
540.300	95.645	0.099
540.400	95.449	0.099
540.500	93.913	0.099
540.600	88.577	0.099
540.700	106.889	0.099
540.800	123.221	0.099
540.900	100.216	0.099
541.000	77.059	0.099
541.100	94.914	0.099
541.200	86.544	0.099
541.300	81.761	0.099
541.400	86.084	0.099
541.500	91.561	0.099
541.600	87.704	0.099
541.700	62.657	0.099
541.800	59.086	0.099
541.900	68.872	0.099
542.000	43.197	0.099
542.100	72.210	0.099
542.200	63.175	0.099
542.300	39.070	0.099
542.400	65.726	0.099
542.500	40.833	0.100
542.600	47.305	0.099
542.700	65.693	0.099
542.800	36.047	0.099
542.900	33.977	0.099
543.000	37.934	0.099
543.100	17.502	0.099
543.200	29.962	0.099
543.300	22.524	0.099
543.400	28.367	0.099
543.500	26.087	0.099
543.600	23.806	0.099
543.700	3.648	0.099
543.800	3.788	0.099
543.900	5.104	0.099
544.000	8.994	0.099
544.100	-2.269	0.099
544.200	-26.822	0.099
544.300	-3.562	0.099
544.400	14.013	0.099
544.500	-2.955	0.099
544.600	11.609	0.099
544.700	4.891	0.099
544.800	3.176	0.099
544.900	7.429	0.099
545.000	-4.839	0.099
545.100	-2.018	0.099
545.200	-24.902	0.099
545.300	-11.103	0.099
545.400	-14.611	0.099
545.500	-14.393	0.099
545.600	-34.298	0.099
545.700	-31.643	0.099
545.800	1.447	0.099
545.900	1.270	0.099
546.000	-1.406	0.099
546.100	-19.658	0.099
546.200	-24.121	0.099
546.300	-25.324	0.099
546.400	-16.361	0.099
546.500	-1.946	0.099
546.600	-47.341	0.099
546.700	-13.895	0.099
546.800	-19.227	0.099
546.900	-25.121	0.099
547.000	-16.319	0.099
547.100	-15.587	0.099
547.200	-13.700	0.099
547.300	-12.239	0.099
547.400	-37.519	0.099
547.500	-35.917	0.099
547.600	-33.647	0.099
547.700	-16.311	0.099
547.800	-4.272	0.099
547.900	6.804	0.099
548.000	-20.209	0.099
548.100	-2.638	0.099
548.200	-37.250	0.099
548.300	-20.703	0.099
548.400	-7.924	0.099
548.500	2.920	0.099
548.600	-4.238	0.099
548.700	-18.863	0.099
548.800	-35.801	0.099
548.900	-22.989	0.099
549.000	-8.812	0.099
549.100	-4.979	0.099
549.200	-41.274	0.099
549.300	-15.495	0.099
549.400	-20.534	0.099
549.500	-1.725	0.099
549.600	-8.879	0.099
549.700	3.097	0.099
549.800	-7.212	0.099
549.900	9.346	0.099
550.000	-11.863	0.099
550.100	3.658	0.099
550.200	-52.669	0.099
550.300	-8.498	0.099
550.400	-22.077	0.099
550.500	-7.197	0.099
550.600	26.288	0.099
550.700	-2.082	0.099
550.800	-5.255	0.099
550.900	-27.633	0.099
551.000	-27.339	0.099
551.100	-22.085	0.099
551.200	-33.789	0.099
551.300	-19.212	0.099
551.400	-16.575	0.099
551.500	-17.738	0.099
551.600	-18.334	0.099
551.700	-4.806	0.099
551.800	-13.386	0.099
551.900	-27.993	0.099
552.000	-23.032	0.099
552.100	-17.835	0.099
552.200	-6.634	0.099
552.300	-7.930	0.099
552.400	-0.358	0.099
552.500	-26.369	0.099
552.600	-40.472	0.099
552.700	-18.095	0.099
552.800	-11.663	0.099
552.900	-21.414	0.099
553.000	2.656	0.099
553.100	-14.504	0.099
553.200	-24.538	0.099
553.300	-33.941	0.099
553.400	-8.264	0.099
553.500	-26.405	0.099
553.600	-35.116	0.099
553.700	-9.907	0.099
553.800	-15.874	0.099
553.900	-17.869	0.099
554.000	-9.192	0.099
554.100	-20.404	0.099
554.200	-10.899	0.099
554.300	-13.946	0.099
554.400	-10.560	0.099
554.500	0.141	0.099
554.600	-17.426	0.099
554.700	-22.220	0.099
554.800	-12.486	0.099
554.900	16.760	0.099
555.000	-22.880	0.099
555.100	-13.290	0.099
555.200	-21.082	0.099
555.300	-15.182	0.099
555.400	-40.617	0.099
555.500	-10.917	0.099
555.600	4.908	0.100
555.700	-6.540	0.099
555.800	-34.779	0.099
555.900	-17.166	0.099
556.000	-21.697	0.099
556.100	-25.678	0.099
556.200	-16.908	0.099
556.300	-16.400	0.099
556.400	-24.153	0.099
556.500	-8.454	0.099
556.600	8.599	0.099
556.700	-34.852	0.099
556.800	-22.819	0.099
556.900	-41.886	0.100
557.000	-19.373	0.099
557.100	-3.716	0.099
557.200	0.436	0.099
557.300	-9.845	0.099
557.400	-3.914	0.099
557.500	-12.152	0.099
557.600	-12.674	0.099
557.700	-44.372	0.099
557.800	-35.573	0.099
557.900	-31.292	0.099
558.000	-33.372	0.099
558.100	1.582	0.099
558.200	-27.861	0.099
558.300	-15.544	0.099
558.400	-5.500	0.099
558.500	-8.822	0.099
558.600	-17.185	0.099
558.700	-41.416	0.099
558.800	19.407	0.099
558.900	-8.686	0.099
559.000	-22.188	0.099
559.100	-21.643	0.099
559.200	-6.438	0.099
559.300	-42.912	0.099
559.400	-21.449	0.099
559.500	-19.201	0.099
559.600	-15.085	0.099
559.700	-0.428	0.099
559.800	-11.207	0.099
559.900	-33.772	0.099
560.000	-42.593	0.099
560.100	-21.708	0.099
560.200	3.555	0.099
560.300	-28.750	0.099
560.400	-13.465	0.099
560.500	-26.408	0.099
560.600	-40.100	0.099
560.700	-44.198	0.099
560.800	-22.010	0.099
560.900	-17.686	0.099
561.000	-27.322	0.099
561.100	-46.629	0.099
561.200	-23.186	0.099
561.300	-32.269	0.099
561.400	-57.360	0.099
561.500	-10.093	0.099
561.600	-32.726	0.099
561.700	-5.224	0.099
561.800	-24.229	0.099
561.900	-45.458	0.099
562.000	-49.644	0.099
562.100	-29.533	0.099
562.200	-32.444	0.099
562.300	-37.826	0.100
562.400	-30.013	0.099
562.500	-23.695	0.099
562.600	-33.134	0.099
562.700	-21.562	0.099
562.800	-52.767	0.099
562.900	-30.941	0.099
563.000	-43.481	0.099
563.100	-50.095	0.099
563.200	-13.181	0.099
563.300	-28.156	0.099
563.400	-33.300	0.099
563.500	-21.621	0.099
563.600	-35.465	0.099
563.700	-21.386	0.099
563.800	-39.285	0.099
563.900	-17.626	0.099
564.000	-34.507	0.099
564.100	-45.166	0.099
564.200	-32.035	0.099
564.300	-45.526	0.099
564.400	-11.830	0.100
564.500	-44.325	0.099
564.600	-23.976	0.099
564.700	-41.704	0.099
564.800	-69.724	0.099
564.900	-20.400	0.099
565.000	-26.730	0.099
565.100	-37.660	0.099
565.200	-7.179	0.100
565.300	-17.012	0.099
565.400	-49.962	0.099
565.500	-49.034	0.099
565.600	-21.841	0.100
565.700	-39.624	0.099
565.800	-43.060	0.099
565.900	-30.731	0.100
566.000	-59.628	0.099
566.100	-43.072	0.099
566.200	-23.165	0.099
566.300	-53.276	0.099
566.400	-38.655	0.099
566.500	-43.128	0.099
566.600	-31.686	0.099
566.700	-42.436	0.099
566.800	-29.213	0.099
566.900	-26.863	0.100
567.000	-30.860	0.100
567.100	-42.294	0.100
567.200	-38.785	0.099
567.300	-33.751	0.099
567.400	-49.179	0.099
567.500	-43.384	0.099
567.600	-17.466	0.099
567.700	-61.666	0.099
567.800	-33.109	0.099
567.900	-61.074	0.099
568.000	-53.884	0.099
568.100	-32.223	0.099
568.200	-31.436	0.099
568.300	-54.317	0.099
568.400	-19.472	0.099
568.500	-45.715	0.099
568.600	-38.547	0.099
568.700	-22.821	0.099
568.800	-48.437	0.099
568.900	-42.340	0.099
569.000	-58.273	0.099
569.100	-29.153	0.099
569.200	-7.638	0.099
569.300	-25.189	0.099
569.400	-47.805	0.099
569.500	-37.439	0.099
569.600	-49.153	0.099
569.700	-27.503	0.099
569.800	-18.663	0.099
569.900	-26.301	0.099
570.000	-34.451	0.099
570.100	-59.139	0.099
570.200	-54.965	0.099
570.300	-21.917	0.099
570.400	-29.951	0.099
570.500	-36.741	0.099
570.600	-41.469	0.099
570.700	-63.155	0.099
570.800	-59.511	0.099
570.900	-19.178	0.099
571.000	-32.615	0.099
571.100	-31.738	0.099
571.200	-21.554	0.099
571.300	-37.960	0.099
571.400	-45.721	0.099
571.500	-48.665	0.099
571.600	-38.079	0.099
571.700	-27.043	0.099
571.800	-38.605	0.099
571.900	-47.164	0.099
572.000	-45.825	0.099
572.100	2.432	0.099
572.200	-46.677	0.099
572.300	-35.149	0.099
572.400	-41.891	0.099
572.500	-55.448	0.099
572.600	-29.541	0.099
572.700	-39.015	0.099
572.800	-48.488	0.099
572.900	-54.501	0.099
573.000	-44.152	0.099
573.100	-23.679	0.099
573.200	-44.424	0.099
573.300	-44.606	0.099
573.400	-38.670	0.099
573.500	-60.976	0.099
573.600	-45.386	0.099
573.700	-11.177	0.099
573.800	-37.519	0.099
573.900	-51.381	0.099
574.000	-17.568	0.099
574.100	-45.481	0.099
574.200	-38.569	0.099
574.300	-34.575	0.099
574.400	-23.560	0.099
574.500	-54.144	0.099
574.600	-41.007	0.099
574.700	-53.625	0.099
574.800	-33.205	0.099
574.900	-36.954	0.099
575.000	-23.364	0.099
575.100	-50.674	0.099
575.200	-23.157	0.099
575.300	-35.149	0.100
575.400	-45.921	0.099
575.500	-67.338	0.099
575.600	-49.616	0.099
575.700	-42.894	0.099
575.800	-60.511	0.099
575.900	-54.771	0.099
576.000	-28.792	0.099
576.100	-39.346	0.099
576.200	-23.555	0.099
576.300	-34.761	0.099
576.400	-49.960	0.099
576.500	-48.090	0.099
576.600	-45.523	0.099
576.700	-47.419	0.099
576.800	-52.132	0.099
576.900	-40.721	0.099
577.000	-52.352	0.099
577.100	-68.858	0.099
577.200	-51.000	0.099
577.300	-33.093	0.099
577.400	-34.214	0.099
577.500	-48.928	0.099
577.600	-32.890	0.099
577.700	-40.495	0.099
577.800	-42.675	0.099
577.900	-61.000	0.099
578.000	-59.255	0.099
578.100	-39.366	0.099
578.200	-53.004	0.099
578.300	-58.878	0.099
578.400	-24.352	0.099
578.500	-45.876	0.099
578.600	-27.479	0.099
578.700	-18.609	0.099
578.800	-57.874	0.099
578.900	-47.235	0.099
579.000	-76.060	0.099
579.100	-51.517	0.099
579.200	-32.075	0.099
579.300	-28.115	0.099
579.400	-61.587	0.099
579.500	-44.836	0.099
579.600	-45.509	0.099
579.700	-56.058	0.099
579.800	-31.035	0.099
579.900	-68.750	0.099
580.000	-15.951	0.099
580.100	-16.076	0.099
580.200	-39.677	0.099
580.300	-44.256	0.099
580.400	-69.296	0.099
580.500	-38.421	0.099
580.600	-48.769	0.099
580.700	-49.575	0.099
580.800	-50.616	0.099
580.900	-37.712	0.099
581.000	-48.565	0.099
581.100	-38.041	0.099
581.200	-59.628	0.099
581.300	-24.081	0.099
581.400	-58.870	0.099
581.500	-59.347	0.099
581.600	-37.207	0.099
581.700	-28.956	0.099
581.800	-40.845	0.099
581.900	-36.333	0.099
582.000	-39.454	0.099
582.100	-29.581	0.099
582.200	-34.251	0.100
582.300	-52.580	0.099
582.400	-42.721	0.099
582.500	-57.664	0.099
582.600	-54.147	0.099
582.700	-56.159	0.099
582.800	-42.761	0.099
582.900	-43.807	0.099
583.000	-32.375	0.099
583.100	-47.649	0.099
583.200	-55.008	0.099
583.300	-51.152	0.099
583.400	-46.044	0.100
583.500	-37.152	0.099
583.600	-28.355	0.099
583.700	-33.790	0.099
583.800	-26.778	0.099
583.900	-44.031	0.100
584.000	-35.041	0.099
584.100	-58.016	0.099
584.200	-66.463	0.099
584.300	-43.922	0.099
584.400	-49.682	0.099
584.500	-24.135	0.099
584.600	-45.378	0.099
584.700	-62.183	0.099
584.800	-49.134	0.099
584.900	-24.096	0.099
585.000	-79.049	0.099
585.100	-27.574	0.099
585.200	-58.263	0.099
585.300	-29.711	0.100
585.400	-51.247	0.099
585.500	-54.429	0.099
585.600	-65.055	0.099
585.700	-41.816	0.099
585.800	-49.167	0.099
585.900	-32.818	0.099
586.000	-31.397	0.099
586.100	-33.356	0.099
586.200	-37.938	0.099
586.300	-71.801	0.099
586.400	-57.896	0.099
586.500	-50.718	0.099
586.600	-67.393	0.099
586.700	-25.003	0.099
586.800	-14.524	0.099
586.900	-42.544	0.099
587.000	-61.908	0.099
587.100	-41.294	0.099
587.200	-40.745	0.099
587.300	-58.084	0.099
587.400	-72.923	0.099
587.500	-26.940	0.099
587.600	-51.007	0.099
587.700	-69.478	0.099
587.800	-63.292	0.099
587.900	-36.325	0.099
588.000	-39.350	0.099
588.100	2.208	0.099
588.200	-60.722	0.100
588.300	-61.732	0.099
588.400	-58.909	0.099
588.500	-46.290	0.099
588.600	-37.066	0.099
588.700	-48.750	0.099
588.800	-37.577	0.099
588.900	-51.005	0.100
589.000	-49.458	0.099
589.100	-32.575	0.099
589.200	-67.551	0.099
589.300	-39.541	0.099
589.400	-55.910	0.099
589.500	-39.885	0.099
589.600	-58.157	0.100
589.700	-24.232	0.099
589.800	-50.216	0.099
589.900	-36.980	0.099
590.000	-41.133	0.100
590.100	-66.732	0.100
590.200	-44.140	0.100
590.300	-56.848	0.099
590.400	-82.229	0.099
590.500	-50.704	0.099
590.600	-22.758	0.099
590.700	-33.447	0.099
590.800	-40.596	0.099
590.900	-48.159	0.099
591.000	-35.594	0.099
591.100	-32.939	0.099
591.200	-36.244	0.100
591.300	-53.905	0.099
591.400	-46.264	0.100
591.500	-72.272	0.099
591.600	-23.427	0.099
591.700	-47.181	0.099
591.800	-39.902	0.099
591.900	-62.627	0.099
592.000	-43.838	0.100
592.100	-31.617	0.099
592.200	-79.268	0.099
592.300	-30.424	0.099
592.400	-43.010	0.099
592.500	-29.129	0.100
592.600	-13.771	0.100
592.700	-40.345	0.100
592.800	-52.934	0.099
592.900	-29.005	0.100
593.000	-66.086	0.099
593.100	-48.701	0.100
593.200	-46.151	0.100
593.300	-29.372	0.100
593.400	-48.395	0.100
593.500	-47.594	0.100
593.600	-67.307	0.100
593.700	-20.807	0.100
593.800	-31.847	0.099
593.900	-40.634	0.099
594.000	-30.682	0.099
594.100	-54.660	0.099
594.200	-43.542	0.099
594.300	-53.915	0.099
594.400	-65.858	0.100
594.500	-35.177	0.099
594.600	-24.670	0.099
594.700	-60.437	0.099
594.800	-77.692	0.099
594.900	-30.780	0.100
595.000	-29.075	0.100
595.100	-40.140	0.100
595.200	-56.517	0.100
595.300	-34.240	0.099
595.400	-49.628	0.099
595.500	-44.405	0.099
595.600	-40.604	0.100
595.700	-34.095	0.100
595.800	-42.062	0.099
595.900	-33.461	0.100
596.000	-49.250	0.099
596.100	-49.896	0.099
596.200	-43.775	0.099
596.300	-55.134	0.099
596.400	-35.508	0.099
596.500	-47.119	0.099
596.600	-35.034	0.099
596.700	-45.270	0.099
596.800	-40.541	0.100
596.900	-47.116	0.099
597.000	-19.612	0.099
597.100	-34.096	0.099
597.200	-38.759	0.099
597.300	-54.761	0.099
597.400	-58.060	0.100
597.500	-39.100	0.099
597.600	-32.812	0.099
597.700	-25.076	0.099
597.800	-69.387	0.099
597.900	-45.355	0.099
598.000	-55.486	0.099
598.100	-29.695	0.100
598.200	-31.339	0.100
598.300	-74.203	0.099
598.400	-44.975	0.099
598.500	-40.312	0.100
598.600	-48.771	0.099
598.700	-40.578	0.099
598.800	-38.438	0.100
598.900	-46.938	0.100
599.000	-52.353	0.099
599.100	-51.644	0.099
599.200	-48.950	0.099
599.300	-37.694	0.099
599.400	-35.245	0.099
599.500	-6.007	0.099
599.600	-45.914	0.100
599.700	-30.067	0.100
599.800	-38.424	0.099
599.900	-35.701	0.100
600.000	-17.762	0.099
600.100	-43.527	0.099
600.200	-59.148	0.099
600.300	-53.455	0.100
600.400	-36.980	0.099
600.500	-17.071	0.099
600.600	-35.503	0.100
600.700	-43.849	0.100
600.800	-40.498	0.100
600.900	-42.799	0.100
601.000	-51.579	0.099
601.100	-39.361	0.099
601.200	-29.692	0.099
601.300	-34.846	0.099
601.400	-45.303	0.099
601.500	-59.410	0.100
601.600	-67.425	0.099
601.700	-43.609	0.099
601.800	-35.499	0.099
601.900	-48.836	0.099
602.000	-44.501	0.099
602.100	-25.558	0.099
602.200	-35.070	0.100
602.300	-52.564	0.099
602.400	-58.306	0.099
602.500	-46.856	0.099
602.600	-43.909	0.099
602.700	-36.298	0.099
602.800	-6.767	0.099
602.900	-41.587	0.099
603.000	-48.903	0.099
603.100	-44.359	0.099
603.200	-57.084	0.099
603.300	-56.108	0.099
603.400	-34.169	0.099
603.500	-42.581	0.099
603.600	-36.486	0.099
603.700	-35.334	0.099
603.800	-54.889	0.099
603.900	-24.646	0.099
604.000	-34.852	0.100
604.100	-33.525	0.099
604.200	-46.511	0.099
604.300	-48.491	0.099
604.400	-30.626	0.099
604.500	-44.617	0.099
604.600	-40.122	0.099
604.700	-7.906	0.099
604.800	-49.057	0.099
604.900	-59.235	0.099
605.000	-48.233	0.099
605.100	-47.549	0.099
605.200	-48.283	0.100
605.300	-33.662	0.099
605.400	-41.553	0.099
605.500	-51.001	0.099
605.600	-25.312	0.099
605.700	-45.598	0.100
605.800	-43.474	0.099
605.900	-62.312	0.099
606.000	-23.472	0.100
606.100	-37.485	0.099
606.200	-21.948	0.099
606.300	-29.608	0.100
606.400	-52.480	0.100
606.500	-50.699	0.099
606.600	-22.805	0.099
606.700	-64.573	0.099
606.800	-31.784	0.099
606.900	-30.548	0.099
607.000	-60.311	0.099
607.100	-46.989	0.099
607.200	-49.744	0.100
607.300	-57.220	0.099
607.400	-34.529	0.099
607.500	-35.111	0.099
607.600	-33.859	0.099
607.700	-36.460	0.099
607.800	-75.365	0.099
607.900	-43.050	0.099
608.000	-46.676	0.099
608.100	-26.414	0.099
608.200	-32.184	0.100
608.300	-37.891	0.099
608.400	-40.128	0.099
608.500	-45.452	0.099
608.600	-41.769	0.099
608.700	-45.923	0.099
608.800	-34.888	0.099
608.900	-58.002	0.099
609.000	-57.402	0.099
609.100	-36.394	0.099
609.200	-30.476	0.099
609.300	-38.966	0.099
609.400	-45.973	0.099
609.500	-63.660	0.099
609.600	-22.355	0.099
609.700	-66.561	0.099
609.800	-42.981	0.100
609.900	-35.505	0.099
610.000	-24.892	0.099
610.100	-73.177	0.100
610.200	-34.777	0.099
610.300	-52.978	0.100
610.400	-39.535	0.099
610.500	-30.553	0.099
610.600	-57.073	0.099
610.700	-38.899	0.099
610.800	-32.425	0.099
610.900	-21.468	0.099
611.000	-45.469	0.099
611.100	-42.114	0.099
611.200	-49.674	0.099
611.300	-25.639	0.099
611.400	-44.552	0.099
611.500	-30.790	0.099
611.600	-25.446	0.100
611.700	-42.660	0.100
611.800	-44.858	0.099
611.900	-24.641	0.099
612.000	-46.166	0.099
612.100	-53.520	0.099
612.200	-32.793	0.100
612.300	-56.486	0.099
612.400	-23.928	0.099
612.500	-54.181	0.100
612.600	-70.607	0.099
612.700	-49.040	0.099
612.800	-25.253	0.099
612.900	-41.576	0.099
613.000	-41.983	0.099
613.100	-77.086	0.099
613.200	-24.536	0.099
613.300	-49.013	0.099
613.400	-51.932	0.099
613.500	-22.966	0.099
613.600	-22.460	0.100
613.700	-17.783	0.099
613.800	-43.824	0.099
613.900	-48.909	0.099
614.000	-38.405	0.099
614.100	-30.389	0.099
614.200	-40.515	0.099
614.300	-57.404	0.099
614.400	-67.167	0.100
614.500	-50.757	0.099
614.600	-30.563	0.099
614.700	-28.373	0.099
614.800	-34.631	0.099
614.900	-26.839	0.099
615.000	-28.213	0.099
615.100	-39.891	0.099
615.200	-47.286	0.099
615.300	-67.665	0.099
615.400	-38.958	0.099
615.500	-21.087	0.099
615.600	-32.901	0.099
615.700	-33.819	0.099
615.800	-35.201	0.099
615.900	-70.268	0.099
616.000	-27.208	0.099
616.100	-23.529	0.099
616.200	-19.882	0.099
616.300	-45.569	0.099
616.400	-25.947	0.099
616.500	-44.532	0.099
616.600	-18.856	0.099
616.700	-19.780	0.099
616.800	-36.839	0.099
616.900	-73.584	0.099
617.000	-20.206	0.099
617.100	-33.156	0.099
617.200	-25.494	0.099
617.300	-30.895	0.099
617.400	-57.571	0.099
617.500	-84.824	0.099
617.600	-41.514	0.099
617.700	-21.717	0.099
617.800	-30.954	0.100
617.900	-23.595	0.099
618.000	-41.200	0.099
618.100	-43.469	0.099
618.200	-55.307	0.099
618.300	-48.612	0.099
618.400	-29.138	0.099
618.500	-25.364	0.099
618.600	-15.336	0.100
618.700	-50.103	0.100
618.800	-42.046	0.099
618.900	-55.624	0.099
619.000	-54.186	0.099
619.100	-56.493	0.100
619.200	-39.054	0.099
619.300	-51.417	0.099
619.400	-55.004	0.099
619.500	-40.776	0.099
619.600	-38.959	0.099
619.700	-37.334	0.099
619.800	-40.105	0.099
619.900	-34.291	0.099
620.000	-23.337	0.099
620.100	-56.836	0.099
620.200	-31.763	0.099
620.300	-41.766	0.099
620.400	-28.661	0.099
620.500	-37.389	0.099
620.600	-49.047	0.099
620.700	-33.087	0.099
620.800	-48.524	0.099
620.900	-47.627	0.099
621.000	-17.590	0.099
621.100	-34.361	0.099
621.200	-56.509	0.099
621.300	-51.187	0.099
621.400	-11.338	0.099
621.500	-19.026	0.100
621.600	-37.252	0.099
621.700	-36.354	0.099
621.800	-43.214	0.099
621.900	-36.587	0.099
622.000	-51.723	0.099
622.100	-65.652	0.099
622.200	-50.560	0.099
622.300	-55.262	0.099
622.400	-35.957	0.099
622.500	-56.300	0.099
622.600	-21.436	0.099
622.700	-55.788	0.099
622.800	-20.934	0.099
622.900	-34.078	0.099
623.000	-48.848	0.099
623.100	-18.349	0.100
623.200	-27.170	0.099
623.300	-47.181	0.099
623.400	-22.993	0.100
623.500	-36.082	0.099
623.600	-62.515	0.099
623.700	-50.933	0.099
623.800	-72.399	0.099
623.900	-43.356	0.099
624.000	-36.237	0.099
624.100	-45.298	0.099
624.200	-30.388	0.099
624.300	-43.754	0.099
624.400	-44.537	0.100
624.500	-52.267	0.099
624.600	-30.735	0.100
624.700	-49.374	0.099
624.800	-28.833	0.099
624.900	-18.193	0.100
625.000	-35.572	0.100
625.100	-37.188	0.099
625.200	-52.150	0.100
625.300	-54.459	0.099
625.400	-39.024	0.100
625.500	-25.330	0.099
625.600	-23.307	0.099
625.700	-43.775	0.099
625.800	-57.600	0.099
625.900	-10.359	0.099
626.000	-38.406	0.099
626.100	-68.936	0.100
626.200	-22.732	0.099
626.300	-53.801	0.099
626.400	-34.624	0.099
626.500	-34.239	0.099
626.600	-71.674	0.099
626.700	-16.698	0.099
626.800	-35.934	0.099
626.900	-32.233	0.099
627.000	-19.448	0.099
627.100	-48.549	0.099
627.200	-21.255	0.099
627.300	-28.466	0.100
627.400	-78.219	0.099
627.500	-34.611	0.099
627.600	-27.648	0.099
627.700	-14.371	0.100
627.800	-38.008	0.100
627.900	-33.664	0.099
628.000	-30.983	0.099
628.100	-45.756	0.099
628.200	-87.382	0.099
628.300	-11.657	0.099
628.400	-27.231	0.099
628.500	-9.873	0.099
628.600	-18.548	0.099
628.700	-37.359	0.100
628.800	-29.834	0.099
628.900	-39.861	0.099
629.000	-31.155	0.100
629.100	-27.620	0.099
629.200	-18.363	0.100
629.300	-1.553	0.100
629.400	-43.180	0.099
629.500	-42.850	0.100
629.600	-46.754	0.099
629.700	-36.178	0.099
629.800	-25.211	0.099
629.900	-38.978	0.099
630.000	-48.125	0.099
630.100	-33.820	0.099
630.200	-22.979	0.100
630.300	-30.098	0.100
630.400	-54.687	0.100
630.500	-40.785	0.099
630.600	-14.264	0.099
630.700	-34.832	0.100
630.800	-44.906	0.100
630.900	-50.394	0.100
631.000	-62.980	0.100
631.100	-38.506	0.100
631.200	-28.804	0.099
631.300	-38.696	0.100
631.400	-9.776	0.100
631.500	-9.571	0.100
631.600	-7.851	0.100
631.700	8.536	0.100
631.800	-14.188	0.099
631.900	-5.833	0.100
632.000	-2.644	0.099
632.100	9.606	0.099
632.200	2.169	0.100
632.300	-11.430	0.099
632.400	-32.601	0.099
632.500	7.265	0.100
632.600	16.671	0.100
632.700	38.499	0.099
632.800	16.777	0.100
632.900	30.412	0.099
633.000	26.547	0.099
633.100	0.429	0.100
633.200	22.899	0.100
633.300	36.408	0.099
633.400	30.291	0.099
633.500	66.647	0.100
633.600	10.017	0.099
633.700	7.052	0.100
633.800	49.071	0.100
633.900	35.342	0.100
634.000	29.440	0.100
634.100	40.618	0.099
634.200	38.601	0.099
634.300	9.099	0.099
634.400	34.861	0.100
634.500	46.303	0.099
634.600	47.007	0.099
634.700	20.637	0.099
634.800	8.466	0.100
634.900	16.630	0.099
635.000	37.728	0.100
635.100	12.456	0.099
635.200	20.644	0.099
635.300	57.686	0.099
635.400	27.403	0.099
635.500	31.824	0.099
635.600	37.559	0.099
635.700	34.317	0.099
635.800	3.985	0.099
635.900	21.788	0.100
636.000	33.486	0.099
636.100	19.757	0.099
636.200	11.324	0.099
636.300	38.214	0.099
636.400	36.076	0.100
636.500	57.432	0.100
636.600	35.293	0.100
636.700	42.763	0.099
636.800	6.625	0.099
636.900	23.508	0.100
637.000	15.900	0.099
637.100	34.107	0.100
637.200	47.911	0.099
637.300	28.538	0.100
637.400	39.495	0.100
637.500	34.801	0.100
637.600	29.306	0.100
637.700	25.883	0.099
637.800	56.071	0.099
637.900	35.498	0.099
638.000	36.619	0.100
638.100	37.786	0.100
638.200	39.020	0.100
638.300	16.511	0.099
638.400	46.765	0.100
638.500	55.359	0.100
638.600	55.667	0.100
638.700	48.873	0.099
638.800	19.666	0.099
638.900	34.105	0.099
639.000	40.740	0.099
639.100	24.902	0.099
639.200	35.298	0.100
639.300	38.933	0.099
639.400	30.226	0.099
639.500	23.090	0.099
639.600	60.742	0.100
639.700	79.887	0.100
639.800	48.570	0.099
639.900	82.108	0.099
640.000	50.633	0.100
640.100	25.718	0.099
640.200	24.246	0.099
640.300	20.627	0.100
640.400	56.830	0.100
640.500	81.760	0.100
640.600	41.223	0.099
640.700	67.888	0.099
640.800	31.883	0.099
640.900	61.630	0.099
641.000	52.914	0.099
641.100	33.465	0.099
641.200	62.102	0.099
641.300	39.323	0.099
641.400	66.613	0.099
641.500	62.772	0.099
641.600	64.740	0.100
641.700	53.179	0.099
641.800	36.895	0.099
641.900	83.817	0.100
642.000	50.425	0.099
642.100	64.493	0.099
642.200	61.575	0.099
642.300	65.400	0.099
642.400	48.521	0.099
642.500	91.309	0.100
642.600	77.956	0.099
642.700	74.173	0.100
642.800	72.333	0.100
642.900	88.102	0.100
643.000	59.372	0.099
643.100	77.966	0.099
643.200	66.242	0.099
643.300	82.566	0.099
643.400	54.181	0.099
643.500	73.607	0.099
643.600	47.961	0.099
643.700	102.122	0.099
643.800	81.759	0.099
643.900	75.554	0.099
644.000	66.060	0.099
644.100	90.492	0.099
644.200	87.867	0.099
644.300	72.714	0.099
644.400	72.461	0.099
644.500	109.024	0.099
644.600	112.766	0.099
644.700	86.664	0.099
644.800	74.570	0.099
644.900	66.953	0.099
645.000	94.148	0.099
645.100	123.438	0.099
645.200	93.567	0.099
645.300	84.666	0.099
645.400	114.376	0.099
645.500	103.953	0.099
645.600	91.240	0.099
645.700	100.565	0.099
645.800	112.001	0.099
645.900	102.658	0.100
646.000	98.009	0.099
646.100	108.940	0.100
646.200	115.339	0.100
646.300	81.053	0.099
646.400	108.922	0.099
646.500	104.953	0.099
646.600	104.662	0.099
646.700	91.819	0.099
646.800	102.905	0.100
646.900	124.352	0.099
647.000	109.623	0.099
647.100	116.168	0.100
647.200	120.945	0.100
647.300	112.469	0.099
647.400	99.152	0.099
647.500	111.294	0.099
647.600	153.312	0.099
647.700	110.558	0.100
647.800	132.210	0.099
647.900	129.236	0.099
648.000	125.036	0.099
648.100	90.307	0.099
648.200	112.102	0.099
648.300	116.022	0.099
648.400	92.442	0.099
648.500	135.089	0.099
648.600	145.366	0.099
648.700	112.396	0.099
648.800	111.033	0.099
648.900	129.920	0.099
649.000	120.327	0.099
649.100	130.132	0.099
649.200	118.280	0.099
649.300	133.476	0.099
649.400	115.336	0.099
649.500	120.224	0.099
649.600	164.225	0.099
649.700	153.836	0.099
649.800	123.257	0.099
649.900	151.175	0.099
650.000	123.155	0.099
650.100	116.245	0.099
650.200	134.544	0.099
650.300	107.465	0.099
650.400	119.089	0.099
650.500	135.139	0.099
650.600	120.675	0.099
650.700	130.517	0.100
650.800	121.855	0.099
650.900	125.387	0.100
651.000	145.522	0.099
651.100	123.559	0.100
651.200	130.010	0.099
651.300	99.908	0.099
651.400	109.837	0.099
651.500	138.538	0.099
651.600	139.687	0.099
651.700	139.160	0.100
651.800	142.136	0.100
651.900	124.607	0.099
652.000	131.872	0.099
652.100	132.800	0.100
652.200	150.577	0.100
652.300	148.157	0.099
652.400	127.411	0.099
652.500	157.005	0.099
652.600	110.795	0.099
652.700	109.785	0.099
652.800	126.076	0.099
652.900	139.118	0.099
653.000	134.504	0.100
653.100	155.551	0.099
653.200	139.086	0.099
653.300	129.652	0.099
653.400	119.263	0.099
653.500	130.846	0.099
653.600	119.730	0.099
653.700	129.651	0.099
653.800	143.059	0.099
653.900	149.168	0.100
654.000	125.557	0.099
654.100	118.384	0.099
654.200	111.338	0.100
654.300	106.607	0.099
654.400	116.163	0.099
654.500	149.026	0.099
654.600	134.855	0.100
654.700	133.916	0.100
654.800	130.946	0.099
654.900	104.895	0.100
655.000	137.478	0.100
655.100	140.241	0.099
655.200	133.008	0.099
655.300	140.084	0.099
655.400	112.877	0.100
655.500	111.780	0.099
655.600	114.412	0.099
655.700	127.939	0.099
655.800	91.104	0.099
655.900	145.441	0.100
656.000	141.205	0.100
656.100	109.987	0.099
656.200	120.465	0.099
656.300	104.436	0.099
656.400	119.688	0.099
656.500	126.251	0.099
656.600	133.803	0.099
656.700	139.397	0.099
656.800	149.301	0.100
656.900	124.437	0.099
657.000	127.299	0.100
657.100	125.350	0.099
657.200	125.246	0.100
657.300	115.336	0.099
657.400	142.634	0.099
657.500	130.622	0.100
657.600	102.523	0.099
657.700	101.363	0.099
657.800	140.577	0.099
657.900	136.131	0.099
658.000	99.004	0.100
658.100	113.232	0.100
658.200	125.835	0.099
658.300	125.756	0.099
658.400	104.305	0.099
658.500	127.153	0.100
658.600	135.254	0.100
658.700	137.481	0.100
658.800	132.569	0.100
658.900	118.433	0.099
659.000	96.239	0.099
659.100	135.447	0.100
659.200	111.874	0.099
659.300	94.591	0.099
659.400	116.036	0.099
659.500	97.387	0.099
659.600	97.931	0.099
659.700	125.652	0.100
659.800	137.800	0.100
659.900	119.560	0.099
660.000	139.170	0.099
660.100	120.812	0.100
660.200	125.906	0.100
660.300	126.466	0.100
660.400	132.999	0.100
660.500	127.387	0.099
660.600	134.374	0.099
660.700	133.951	0.100
660.800	116.014	0.099
660.900	122.613	0.100
661.000	90.864	0.099
661.100	106.347	0.099
661.200	126.706	0.100
661.300	122.102	0.100
661.400	127.109	0.099
661.500	137.499	0.100
661.600	94.838	0.099
661.700	92.711	0.100
661.800	93.854	0.100
661.900	139.534	0.099
662.000	115.924	0.099
662.100	126.317	0.099
662.200	122.030	0.100
662.300	127.817	0.099
662.400	120.659	0.100
662.500	132.562	0.099
662.600	122.829	0.099
662.700	130.320	0.099
662.800	121.155	0.100
662.900	108.618	0.100
663.000	111.796	0.100
663.100	118.894	0.099
663.200	101.091	0.099
663.300	115.562	0.099
663.400	138.872	0.099
663.500	140.020	0.099
663.600	133.462	0.099
663.700	116.017	0.099
663.800	131.909	0.100
663.900	121.396	0.100
664.000	94.526	0.099
664.100	107.287	0.100
664.200	108.178	0.099
664.300	148.516	0.099
664.400	133.974	0.099
664.500	75.759	0.100
664.600	101.827	0.099
664.700	120.658	0.100
664.800	130.665	0.099
664.900	134.560	0.099
665.000	103.101	0.099
665.100	127.683	0.100
665.200	125.383	0.100
665.300	99.956	0.099
665.400	112.550	0.099
665.500	126.091	0.100
665.600	100.762	0.099
665.700	137.852	0.099
665.800	124.326	0.099
665.900	121.020	0.100
666.000	128.155	0.100
666.100	105.104	0.100
666.200	118.056	0.099
666.300	121.148	0.099
666.400	120.226	0.099
666.500	118.859	0.099
666.600	108.481	0.099
666.700	122.536	0.099
666.800	128.691	0.099
666.900	128.280	0.099
667.000	103.532	0.099
667.100	92.581	0.100
667.200	136.470	0.099
667.300	121.561	0.099
667.400	91.162	0.099
667.500	125.531	0.099
667.600	110.411	0.100
667.700	122.538	0.099
667.800	100.631	0.099
667.900	133.322	0.099
668.000	109.376	0.099
668.100	113.408	0.099
668.200	87.433	0.099
668.300	83.743	0.099
668.400	124.717	0.099
668.500	127.003	0.100
668.600	106.453	0.099
668.700	87.542	0.099
668.800	112.340	0.099
668.900	109.257	0.099
669.000	119.103	0.099
669.100	139.013	0.100
669.200	96.854	0.100
669.300	112.495	0.099
669.400	118.853	0.099
669.500	94.424	0.099
669.600	108.190	0.099
669.700	117.610	0.100
669.800	105.867	0.099
669.900	121.041	0.099
670.000	117.648	0.099
670.100	109.531	0.099
670.200	117.306	0.099
670.300	119.027	0.100
670.400	101.937	0.099
670.500	120.296	0.099
670.600	102.097	0.100
670.700	86.832	0.100
670.800	98.915	0.099
670.900	152.791	0.099
671.000	123.384	0.100
671.100	113.392	0.099
671.200	124.960	0.100
671.300	110.582	0.099
671.400	89.321	0.099
671.500	138.435	0.100
671.600	131.456	0.100
671.700	104.494	0.100
671.800	114.523	0.100
671.900	116.777	0.099
672.000	105.838	0.099
672.100	118.201	0.099
672.200	116.084	0.100
672.300	113.691	0.100
672.400	84.248	0.100
672.500	106.459	0.100
672.600	91.891	0.100
672.700	117.204	0.099
672.800	118.588	0.099
672.900	99.261	0.099
673.000	90.746	0.099
673.100	123.774	0.100
673.200	105.350	0.100
673.300	93.717	0.100
673.400	127.451	0.100
673.500	95.781	0.099
673.600	116.747	0.099
673.700	113.511	0.100
673.800	95.376	0.100
673.900	117.711	0.099
674.000	85.889	0.100
674.100	123.243	0.100
674.200	98.293	0.100
674.300	113.851	0.100
674.400	115.071	0.100
674.500	108.584	0.099
674.600	130.144	0.100
674.700	109.160	0.100
674.800	91.427	0.100
674.900	139.741	0.100
675.000	113.778	0.099
675.100	98.036	0.100
675.200	100.972	0.100
675.300	111.219	0.100
675.400	104.919	0.099
675.500	104.600	0.100
675.600	135.221	0.100
675.700	103.000	0.100
675.800	94.002	0.099
675.900	86.704	0.100
676.000	76.664	0.099
676.100	105.001	0.099
676.200	101.862	0.099
676.300	117.636	0.099
676.400	94.841	0.100
676.500	99.629	0.100
676.600	109.665	0.099
676.700	100.025	0.099
676.800	125.816	0.099
676.900	115.152	0.099
677.000	102.773	0.100
677.100	137.580	0.100
677.200	98.531	0.100
677.300	101.954	0.099
677.400	108.889	0.100
677.500	111.236	0.100
677.600	131.555	0.099
677.700	110.475	0.099
677.800	117.932	0.100
677.900	114.543	0.100
678.000	109.742	0.100
678.100	117.457	0.099
678.200	85.926	0.099
678.300	98.405	0.099
678.400	105.380	0.100
678.500	91.311	0.099
678.600	122.070	0.100
678.700	108.916	0.099
678.800	104.967	0.099
678.900	130.392	0.099
679.000	102.520	0.100
679.100	107.995	0.099
679.200	105.734	0.100
679.300	145.536	0.099
679.400	98.571	0.100
679.500	123.504	0.099
679.600	108.410	0.099
679.700	107.194	0.100
679.800	80.212	0.099
679.900	117.500	0.100
680.000	108.602	0.100
680.100	100.582	0.100
680.200	105.828	0.100
680.300	129.535	0.100
680.400	108.027	0.099
680.500	88.679	0.100
680.600	108.297	0.099
680.700	117.934	0.099
680.800	110.859	0.099
680.900	87.560	0.100
681.000	118.549	0.100
681.100	123.664	0.100
681.200	107.117	0.099
681.300	102.273	0.099
681.400	117.352	0.100
681.500	116.173	0.100
681.600	72.855	0.100
681.700	130.154	0.100
681.800	117.856	0.100
681.900	94.185	0.099
682.000	106.369	0.099
682.100	112.826	0.100
682.200	95.773	0.100
682.300	118.020	0.100
682.400	102.482	0.100
682.500	86.882	0.100
682.600	98.895	0.100
682.700	133.719	0.099
682.800	122.438	0.100
682.900	120.953	0.100
683.000	83.636	0.100
683.100	98.314	0.099
683.200	94.645	0.099
683.300	84.750	0.099
683.400	102.622	0.100
683.500	130.224	0.099
683.600	123.963	0.100
683.700	133.269	0.100
683.800	98.859	0.099
683.900	111.256	0.100
684.000	99.359	0.100
684.100	98.470	0.100
684.200	106.646	0.099
684.300	97.402	0.100
684.400	104.197	0.100
684.500	108.328	0.099
684.600	90.087	0.099
684.700	86.302	0.100
684.800	113.372	0.100
684.900	96.077	0.100
685.000	102.090	0.100
685.100	112.948	0.100
685.200	121.632	0.100
685.300	107.355	0.100
685.400	99.921	0.099
685.500	118.076	0.099
685.600	77.634	0.100
685.700	99.656	0.099
685.800	93.106	0.099
685.900	104.681	0.099
686.000	109.279	0.099
686.100	129.851	0.100
686.200	107.473	0.100
686.300	103.618	0.100
686.400	109.311	0.099
686.500	76.806	0.099
686.600	107.541	0.100
686.700	110.586	0.100
686.800	104.829	0.099
686.900	95.283	0.099
687.000	95.884	0.099
687.100	99.995	0.100
687.200	92.871	0.100
687.300	109.071	0.099
687.400	75.572	0.099
687.500	118.022	0.100
687.600	122.092	0.100
687.700	103.285	0.100
687.800	105.597	0.100
687.900	117.817	0.099
688.000	128.147	0.099
688.100	111.256	0.100
688.200	105.136	0.099
688.300	106.271	0.099
688.400	71.459	0.099
688.500	96.744	0.100
688.600	106.625	0.100
688.700	109.070	0.100
688.800	96.688	0.100
688.900	134.983	0.100
689.000	95.417	0.100
689.100	127.403	0.100
689.200	96.707	0.100
689.300	79.450	0.100
689.400	98.286	0.100
689.500	90.001	0.100
689.600	100.831	0.099
689.700	102.048	0.100
689.800	130.451	0.100
689.900	101.929	0.100
690.000	77.905	0.099
690.100	105.447	0.099
690.200	112.439	0.100
690.300	88.926	0.100
690.400	114.879	0.099
690.500	121.618	0.100
690.600	97.210	0.099
690.700	130.834	0.100
690.800	105.389	0.100
690.900	76.094	0.099
691.000	114.582	0.099
691.100	115.985	0.100
691.200	87.188	0.099
691.300	74.052	0.099
691.400	79.107	0.100
691.500	61.936	0.100
691.600	73.471	0.100
691.700	78.874	0.099
691.800	82.480	0.100
691.900	67.758	0.099
692.000	65.490	0.100
692.100	44.989	0.100
692.200	48.567	0.100
692.300	52.539	0.099
692.400	37.058	0.100
692.500	45.783	0.099
692.600	41.415	0.100
692.700	43.171	0.100
692.800	40.046	0.100
692.900	27.338	0.100
693.000	5.104	0.099
693.100	19.398	0.100
693.200	15.338	0.100
693.300	10.582	0.100
693.400	52.743	0.100
693.500	14.508	0.100
693.600	-8.219	0.099
693.700	-5.030	0.100
693.800	9.466	0.100
693.900	1.996	0.100
694.000	1.986	0.100
694.100	6.790	0.100
694.200	-7.080	0.100
694.300	0.300	0.100
694.400	-4.367	0.100
694.500	-7.163	0.099
694.600	13.687	0.100
694.700	-14.588	0.100
694.800	-15.073	0.100
694.900	-20.362	0.099
695.000	-47.601	0.100
695.100	-11.169	0.100
695.200	-28.419	0.099
695.300	2.348	0.100
695.400	-11.302	0.100
695.500	-17.778	0.100
695.600	-17.120	0.100
695.700	-39.191	0.100
695.800	-46.246	0.099
695.900	-7.371	0.100
696.000	-15.103	0.100
696.100	-11.691	0.100
696.200	-3.965	0.099
696.300	-26.249	0.099
696.400	-11.574	0.100
696.500	-29.073	0.100
696.600	-50.652	0.100
696.700	-40.048	0.099
696.800	-8.695	0.099
696.900	-15.198	0.099
697.000	-17.544	0.100
697.100	-22.791	0.100
697.200	-0.909	0.100
697.300	-15.480	0.100
697.400	-14.485	0.100
697.500	-32.572	0.100
697.600	-12.214	0.100
697.700	-24.925	0.099
697.800	-23.218	0.100
697.900	-34.369	0.100
698.000	-23.365	0.100
698.100	-10.947	0.100
698.200	-66.310	0.100
698.300	-23.992	0.100
698.400	-41.834	0.099
698.500	-25.666	0.100
698.600	4.413	0.100
698.700	-14.550	0.100
698.800	-22.093	0.100
698.900	-24.504	0.100
699.000	-11.349	0.099
699.100	-11.336	0.100
699.200	-20.910	0.100
699.300	-28.911	0.100
699.400	-14.156	0.100
699.500	-15.254	0.100
699.600	-17.115	0.100
699.700	-30.790	0.100
699.800	-24.739	0.100
699.900	-26.325	0.100
700.000	-15.479	0.100
700.100	-15.748	0.100
700.200	-16.824	0.100
700.300	-8.696	0.099
700.400	-30.466	0.100
700.500	-43.201	0.100
700.600	-60.411	0.100
700.700	-21.140	0.099
700.800	-19.246	0.099
700.900	-3.446	0.099
701.000	-17.544	0.100
701.100	-17.639	0.100
701.200	-24.070	0.100
701.300	-35.315	0.100
701.400	-20.956	0.100
701.500	-40.355	0.100
701.600	10.960	0.100
701.700	-19.988	0.099
701.800	-27.143	0.100
701.900	-30.188	0.100
702.000	-12.279	0.100
702.100	-17.567	0.100
702.200	-16.790	0.100
702.300	-28.270	0.100
702.400	-36.608	0.100
702.500	-7.396	0.100
702.600	3.919	0.100
702.700	-9.074	0.099
702.800	-31.635	0.100
702.900	10.507	0.100
703.000	-38.564	0.099
703.100	-30.267	0.100
703.200	7.223	0.100
703.300	3.407	0.099
703.400	-21.650	0.100
703.500	-41.837	0.099
703.600	-9.897	0.100
703.700	-47.532	0.100
703.800	-0.574	0.100
703.900	-14.511	0.100
704.000	-39.294	0.100
704.100	-40.248	0.100
704.200	-4.685	0.099
704.300	-3.830	0.100
704.400	-17.528	0.100
704.500	-9.673	0.100
704.600	-19.203	0.100
704.700	10.894	0.100
704.800	-33.622	0.100
704.900	-13.040	0.100
705.000	-0.572	0.100
705.100	-27.664	0.100
705.200	-13.925	0.100
705.300	-26.833	0.100
705.400	-23.645	0.100
705.500	-13.422	0.100
705.600	-17.019	0.100
705.700	-40.075	0.100
705.800	14.888	0.100
705.900	-24.832	0.100
706.000	-11.900	0.100
706.100	-22.981	0.100
706.200	16.357	0.100
706.300	-27.114	0.100
706.400	-22.175	0.100
706.500	-4.976	0.100
706.600	-27.956	0.100
706.700	-41.915	0.100
706.800	-19.235	0.100
706.900	19.029	0.100
707.000	-23.255	0.100
707.100	-27.753	0.100
707.200	-46.636	0.100
707.300	-21.502	0.100
707.400	-30.953	0.100
707.500	-14.179	0.100
707.600	-13.514	0.100
707.700	-30.854	0.100
707.800	-23.724	0.100
707.900	-44.036	0.100
708.000	-18.390	0.100
708.100	-29.265	0.100
708.200	-48.890	0.100
708.300	-25.587	0.100
708.400	-27.245	0.100
708.500	0.568	0.100
708.600	-37.874	0.100
708.700	-17.239	0.100
708.800	-3.339	0.100
708.900	-59.116	0.100
709.000	-34.265	0.100
709.100	-1.895	0.100
709.200	-56.898	0.100
709.300	-28.293	0.100
709.400	-13.186	0.100
709.500	-11.672	0.100
709.600	-59.324	0.100
709.700	-43.712	0.100
709.800	-25.384	0.100
709.900	-25.509	0.100
710.000	-22.610	0.100
710.100	-7.430	0.100
710.200	-33.925	0.100
710.300	-35.570	0.100
710.400	-20.040	0.100
710.500	-51.535	0.100
710.600	-16.604	0.100
710.700	-7.289	0.100
710.800	-17.166	0.100
710.900	-20.735	0.100
711.000	-14.299	0.100
711.100	-50.309	0.100
711.200	-28.391	0.099
711.300	-33.333	0.100
711.400	-46.135	0.100
711.500	-28.841	0.100
711.600	-29.991	0.100
711.700	-17.783	0.100
711.800	-20.557	0.100
711.900	-24.491	0.100
712.000	-45.673	0.100
712.100	-46.237	0.100
712.200	-44.131	0.100
712.300	-28.957	0.100
712.400	-49.238	0.100
712.500	-36.120	0.100
712.600	-14.548	0.100
712.700	-34.435	0.100
712.800	-26.908	0.100
712.900	-40.904	0.100
713.000	-36.838	0.100
713.100	-50.324	0.100
713.200	-28.490	0.100
713.300	-31.369	0.100
713.400	-36.249	0.100
713.500	-15.903	0.100
713.600	-31.703	0.100
713.700	-35.513	0.100
713.800	-78.395	0.100
713.900	-8.129	0.100
714.000	-41.319	0.100
714.100	-46.071	0.099
714.200	-7.905	0.100
714.300	-7.145	0.100
714.400	-50.713	0.100
714.500	-24.642	0.100
714.600	-53.436	0.100
714.700	-47.671	0.100
714.800	-28.217	0.100
714.900	-57.403	0.100
715.000	-39.584	0.100
715.100	-27.322	0.100
715.200	-29.872	0.100
715.300	-47.091	0.100
715.400	-51.591	0.100
715.500	-32.125	0.100
715.600	-28.639	0.100
715.700	-63.994	0.100
715.800	-38.937	0.100
715.900	-32.505	0.100
716.000	-49.523	0.100
716.100	-21.711	0.100
716.200	-54.643	0.100
716.300	-51.160	0.100
716.400	-32.238	0.100
716.500	-19.076	0.100
716.600	-23.551	0.100
716.700	-30.848	0.100
716.800	-43.647	0.100
716.900	-46.908	0.100
717.000	-84.905	0.100
717.100	-17.585	0.100
717.200	-16.623	0.100
717.300	-34.511	0.100
717.400	-45.526	0.100
717.500	-22.354	0.100
717.600	-44.537	0.100
717.700	-47.789	0.100
717.800	-26.779	0.100
717.900	-36.937	0.100
718.000	-69.255	0.100
718.100	-5.433	0.100
718.200	-25.142	0.100
718.300	-47.987	0.100
718.400	-42.937	0.100
718.500	-46.957	0.100
718.600	-41.062	0.100
718.700	-20.312	0.100
718.800	-36.057	0.100
718.900	-50.846	0.100
719.000	-45.421	0.100
719.100	-69.497	0.100
719.200	-48.511	0.100
719.300	-44.067	0.100
719.400	-30.886	0.100
719.500	-48.287	0.100
719.600	-23.679	0.100
719.700	-48.555	0.100
719.800	-79.113	0.100
719.900	-1.735	0.100
720.000	-3.297	0.100
720.100	-33.817	0.100
720.200	-29.960	0.100
720.300	-51.052	0.100
720.400	-33.018	0.100
720.500	-42.114	0.100
720.600	-59.642	0.100
720.700	-42.566	0.100
720.800	-31.800	0.100
720.900	-34.669	0.100
721.000	-44.647	0.100
721.100	-48.946	0.100
721.200	-79.178	0.100
721.300	-34.808	0.100
721.400	-22.922	0.100
721.500	-42.806	0.100
721.600	-19.820	0.100
721.700	-47.741	0.100
721.800	-43.834	0.100
721.900	-44.104	0.100
722.000	-63.726	0.100
722.100	-31.150	0.100
722.200	-51.302	0.100
722.300	-34.619	0.100
722.400	-56.515	0.100
722.500	-41.601	0.100
722.600	-35.904	0.100
722.700	-44.046	0.100
722.800	-47.450	0.100
722.900	-42.680	0.100
723.000	-41.971	0.100
723.100	-46.069	0.100
723.200	-31.740	0.100
723.300	-38.498	0.100
723.400	-39.406	0.100
723.500	-48.403	0.100
723.600	-55.072	0.100
723.700	-42.758	0.100
723.800	-55.342	0.100
723.900	-53.328	0.100
724.000	-44.190	0.100
724.100	-38.030	0.100
724.200	-34.853	0.100
724.300	-29.789	0.100
724.400	-54.203	0.100
724.500	-63.626	0.100
724.600	-16.397	0.100
724.700	-30.939	0.100
724.800	-60.098	0.100
724.900	-64.134	0.100
725.000	-71.080	0.100
725.100	-26.730	0.100
725.200	-67.688	0.100
725.300	-18.665	0.100
725.400	-32.350	0.100
725.500	-48.453	0.100
725.600	-45.091	0.100
725.700	-42.379	0.100
725.800	-39.810	0.100
725.900	-44.446	0.100
726.000	-59.452	0.100
726.100	-53.186	0.100
726.200	-47.526	0.100
726.300	-39.409	0.100
726.400	-52.479	0.100
726.500	-62.348	0.100
726.600	-72.304	0.100
726.700	-60.588	0.100
726.800	-65.353	0.100
726.900	-62.142	0.100
727.000	-61.645	0.100
727.100	-81.200	0.100
727.200	-11.336	0.100
727.300	-53.583	0.100
727.400	-43.059	0.100
727.500	-28.443	0.100
727.600	-47.984	0.100
727.700	-40.605	0.100
727.800	-31.382	0.100
727.900	-35.739	0.100
728.000	-44.806	0.100
728.100	-38.355	0.100
728.200	-60.235	0.100
728.300	-52.383	0.100
728.400	-39.466	0.100
728.500	-28.546	0.100
728.600	-45.086	0.100
728.700	-63.482	0.100
728.800	-46.018	0.100
728.900	-56.050	0.100
729.000	-82.367	0.100
729.100	-47.368	0.100
729.200	-38.091	0.100
729.300	-52.794	0.100
729.400	-64.070	0.100
729.500	-45.973	0.100
729.600	-47.117	0.100
729.700	-45.957	0.100
729.800	-57.907	0.100
729.900	-70.830	0.100
730.000	-49.005	0.100
730.100	-42.265	0.100
730.200	-40.693	0.100
730.300	-32.072	0.100
730.400	-62.198	0.100
730.500	-50.694	0.100
730.600	-39.043	0.100
730.700	-29.997	0.100
730.800	-20.043	0.100
730.900	-62.997	0.100
731.000	-65.034	0.100
731.100	-51.408	0.100
731.200	-36.800	0.100
731.300	-54.613	0.100
731.400	-44.500	0.100
731.500	-54.197	0.100
731.600	-69.818	0.100
731.700	-55.779	0.100
731.800	-32.871	0.100
731.900	-25.109	0.100
732.000	-36.862	0.100
732.100	-48.467	0.100
732.200	-69.246	0.100
732.300	-54.097	0.100
732.400	-54.031	0.100
732.500	-52.743	0.100
732.600	-46.578	0.100
732.700	-63.074	0.100
732.800	-51.912	0.100
732.900	-56.127	0.100
733.000	-35.265	0.100
733.100	-48.093	0.100
733.200	-60.010	0.100
733.300	-45.376	0.100
733.400	-37.144	0.100
733.500	-30.650	0.100
733.600	-39.889	0.100
733.700	-50.266	0.100
733.800	-61.213	0.100
733.900	-51.677	0.100
734.000	-62.773	0.100
734.100	-74.085	0.100
734.200	-47.324	0.100
734.300	-34.191	0.100
734.400	-63.800	0.100
734.500	-24.484	0.100
734.600	-54.643	0.100
734.700	-46.528	0.100
734.800	-39.725	0.100
734.900	-74.077	0.100
735.000	-48.147	0.100
735.100	-33.114	0.100
735.200	-24.014	0.100
735.300	-42.741	0.100
735.400	-39.732	0.100
735.500	-25.407	0.100
735.600	-65.202	0.100
735.700	-71.180	0.100
735.800	-96.792	0.100
735.900	-54.941	0.100
736.000	-32.230	0.100
736.100	-22.911	0.100
736.200	2.886	0.100
736.300	-26.115	0.100
736.400	-57.821	0.100
736.500	-63.786	0.100
736.600	-36.403	0.100
736.700	-43.434	0.100
736.800	-51.267	0.100
736.900	-33.913	0.100
737.000	-87.782	0.100
737.100	-29.140	0.100
737.200	-58.156	0.100
737.300	-40.299	0.100
737.400	-46.927	0.100
737.500	-50.945	0.100
737.600	-42.785	0.100
737.700	-55.716	0.100
737.800	-29.720	0.100
737.900	-45.966	0.100
738.000	-55.127	0.100
738.100	-39.289	0.100
738.200	-47.386	0.100
738.300	-53.056	0.100
738.400	-43.411	0.100
738.500	-38.267	0.100
738.600	-45.549	0.100
738.700	-51.822	0.100
738.800	-65.095	0.100
738.900	-45.064	0.100
739.000	-47.658	0.100
739.100	-52.483	0.100
739.200	-43.577	0.100
739.300	-36.556	0.100
739.400	-54.139	0.100
739.500	-41.505	0.100
739.600	-40.433	0.100
739.700	-55.915	0.100
739.800	-107.282	0.100
739.900	-52.882	0.100
740.000	-26.536	0.100
740.100	-42.631	0.100
740.200	-37.712	0.100
740.300	-33.852	0.100
740.400	-9.391	0.100
740.500	-36.707	0.100
740.600	-35.476	0.100
740.700	-51.258	0.100
740.800	-42.435	0.100
740.900	-38.190	0.100
741.000	-75.082	0.100
741.100	-40.131	0.100
741.200	-59.433	0.100
741.300	-74.289	0.100
741.400	-42.581	0.100
741.500	-32.428	0.100
741.600	-53.440	0.100
741.700	-23.227	0.100
741.800	-57.261	0.100
741.900	-36.048	0.100
742.000	-55.945	0.100
742.100	-58.761	0.100
742.200	-56.032	0.100
742.300	-72.085	0.100
742.400	-55.772	0.100
742.500	-52.563	0.100
742.600	-48.229	0.100
742.700	-50.573	0.100
742.800	-46.038	0.100
742.900	-61.443	0.100
743.000	-51.765	0.100
743.100	-33.509	0.100
743.200	-25.505	0.100
743.300	-58.551	0.100
743.400	-52.531	0.100
743.500	-54.726	0.100
743.600	-40.575	0.100
743.700	-39.779	0.100
743.800	-28.404	0.100
743.900	-56.519	0.100
744.000	-31.179	0.100
744.100	-50.966	0.100
744.200	-52.994	0.100
744.300	-40.508	0.100
744.400	-55.155	0.100
744.500	-51.048	0.100
744.600	-36.181	0.100
744.700	-39.970	0.100
744.800	-49.126	0.100
744.900	-47.723	0.100
745.000	-35.819	0.100
745.100	-63.128	0.100
745.200	-51.341	0.100
745.300	-27.178	0.100
745.400	-90.089	0.100
745.500	-81.752	0.100
745.600	-35.867	0.100
745.700	-32.790	0.100
745.800	-44.031	0.100
745.900	-39.535	0.100
746.000	-67.388	0.100
746.100	-58.947	0.100
746.200	-40.765	0.100
746.300	-38.632	0.100
746.400	-41.461	0.100
746.500	-43.152	0.100
746.600	-35.951	0.100
746.700	-45.305	0.100
746.800	-31.706	0.100
746.900	-50.219	0.100
747.000	-36.741	0.100
747.100	-42.789	0.100
747.200	-39.640	0.100
747.300	-43.403	0.100
747.400	-59.931	0.100
747.500	-63.346	0.100
747.600	-51.161	0.100
747.700	-47.319	0.100
747.800	-53.307	0.100
747.900	-31.872	0.100
748.000	-38.183	0.100
748.100	-55.504	0.100
748.200	-53.667	0.100
748.300	-78.430	0.100
748.400	-56.531	0.100
748.500	-29.046	0.100
748.600	-40.058	0.100
748.700	-41.858	0.100
748.800	-56.435	0.100
748.900	-44.040	0.100
749.000	-51.580	0.100
749.100	-42.575	0.100
749.200	-66.781	0.100
749.300	-18.893	0.100
749.400	-23.826	0.100
749.500	-58.866	0.100
749.600	-25.943	0.100
749.700	-37.442	0.100
749.800	-35.852	0.100
749.900	-32.986	0.100
750.000	-35.203	0.100
750.100	-44.988	0.100
750.200	-43.154	0.100
750.300	-35.380	0.100
750.400	-63.154	0.100
750.500	-45.447	0.100
750.600	-24.420	0.100
750.700	-29.893	0.100
750.800	-29.354	0.100
750.900	-47.236	0.100
751.000	-50.486	0.100
751.100	-41.210	0.100
751.200	-52.863	0.100
751.300	-54.701	0.100
751.400	-18.001	0.100
751.500	-52.936	0.100
751.600	-44.184	0.100
751.700	-42.241	0.100
751.800	-44.812	0.100
751.900	-56.576	0.100
752.000	-38.390	0.100
752.100	-46.682	0.100
752.200	-45.624	0.100
752.300	-33.395	0.100
752.400	-30.168	0.100
752.500	-59.890	0.100
752.600	-40.307	0.100
752.700	-49.229	0.100
752.800	-61.687	0.100
752.900	-48.168	0.100
753.000	-48.890	0.100
753.100	-42.583	0.100
753.200	-31.873	0.100
753.300	-41.713	0.100
753.400	-26.980	0.100
753.500	-47.454	0.100
753.600	-60.132	0.100
753.700	-39.834	0.100
753.800	-45.262	0.100
753.900	-50.065	0.100
754.000	-35.252	0.100
754.100	-42.418	0.100
754.200	-46.855	0.100
754.300	-47.603	0.100
754.400	-43.482	0.100
754.500	-30.201	0.100
754.600	-54.107	0.100
754.700	-57.759	0.100
754.800	-46.676	0.100
754.900	-23.753	0.100
755.000	-53.664	0.100
755.100	-58.023	0.100
755.200	-36.698	0.100
755.300	-55.158	0.100
755.400	-42.508	0.100
755.500	-62.593	0.100
755.600	-41.838	0.100
755.700	-42.795	0.100
755.800	-43.357	0.100
755.900	-50.455	0.100
756.000	-31.077	0.100
756.100	-50.554	0.100
756.200	-24.786	0.100
756.300	-39.603	0.100
756.400	-33.069	0.100
756.500	-58.180	0.100
756.600	-46.263	0.100
756.700	-62.663	0.100
756.800	-49.038	0.100
756.900	-46.675	0.100
757.000	-42.940	0.100
757.100	-63.609	0.100
757.200	-33.602	0.100
757.300	-55.133	0.100
757.400	-38.828	0.100
757.500	-21.066	0.100
757.600	-31.567	0.100
757.700	-60.065	0.100
757.800	-42.461	0.100
757.900	-39.948	0.100
758.000	-39.936	0.100
758.100	-37.612	0.100
758.200	-58.011	0.100
758.300	-52.466	0.100
758.400	-21.392	0.100
758.500	-43.623	0.100
758.600	-46.258	0.100
758.700	-37.190	0.100
758.800	-41.566	0.100
758.900	-42.803	0.100
759.000	-43.844	0.100
759.100	-34.071	0.100
759.200	-43.693	0.100
759.300	-45.791	0.100
759.400	-37.303	0.100
759.500	-57.685	0.100
759.600	-29.450	0.100
759.700	-44.184	0.100
759.800	-37.853	0.100
759.900	-51.374	0.100
760.000	-44.205	0.100
760.100	-31.208	0.100
760.200	-58.813	0.100
760.300	-26.458	0.100
760.400	-33.479	0.100
760.500	-42.182	0.100
760.600	-71.105	0.100
760.700	-17.088	0.100
760.800	-61.421	0.100
760.900	-60.456	0.100
761.000	-44.936	0.100
761.100	-26.343	0.100
761.200	-41.870	0.100
761.300	-62.541	0.100
761.400	-35.094	0.100
761.500	-52.184	0.100
761.600	-30.180	0.100
761.700	-31.824	0.100
761.800	-25.186	0.100
761.900	-52.163	0.100
762.000	-48.144	0.100
762.100	-42.547	0.100
762.200	-22.910	0.100
762.300	-45.485	0.100
762.400	-47.158	0.100
762.500	-37.692	0.100
762.600	-22.545	0.100
762.700	-52.637	0.100
762.800	-58.339	0.100
762.900	-56.479	0.100
763.000	-80.373	0.100
763.100	-30.453	0.100
763.200	-44.217	0.100
763.300	-32.022	0.100
763.400	-78.058	0.100
763.500	-24.615	0.100
763.600	-42.212	0.100
763.700	-44.739	0.100
763.800	-9.364	0.100
763.900	-1.401	0.100
764.000	-35.882	0.100
764.100	-31.729	0.100
764.200	-54.555	0.100
764.300	-38.830	0.100
764.400	-53.932	0.100
764.500	-58.343	0.100
764.600	-34.292	0.100
764.700	-33.073	0.100
764.800	-44.880	0.100
764.900	-38.950	0.100
765.000	-46.659	0.100
765.100	-54.965	0.100
765.200	-27.631	0.100
765.300	-30.016	0.100
765.400	-45.951	0.100
765.500	-57.066	0.100
765.600	-25.801	0.100
765.700	-38.390	0.100
765.800	-44.914	0.100
765.900	-46.302	0.100
766.000	-35.422	0.100
766.100	-62.565	0.100
766.200	-53.053	0.100
766.300	-33.646	0.100
766.400	-28.978	0.100
766.500	-31.323	0.100
766.600	-42.862	0.100
766.700	-40.877	0.100
766.800	-40.822	0.100
766.900	-40.731	0.100
767.000	-63.882	0.100
767.100	-47.595	0.100
767.200	-32.416	0.100
767.300	-36.148	0.100
767.400	-44.204	0.100
767.500	-29.360	0.100
767.600	-40.080	0.100
767.700	-51.290	0.100
767.800	-51.224	0.100
767.900	-75.940	0.100
768.000	-35.706	0.100
768.100	-36.460	0.100
768.200	-20.918	0.100
768.300	-38.963	0.100
768.400	-35.911	0.100
768.500	-34.166	0.100
768.600	-46.195	0.100
768.700	-55.468	0.100
768.800	-34.629	0.100
768.900	-48.592	0.100
769.000	-42.883	0.100
769.100	-36.231	0.100
769.200	-36.617	0.100
769.300	-45.566	0.100
769.400	-37.105	0.100
769.500	-20.158	0.100
769.600	-24.429	0.100
769.700	-50.437	0.100
769.800	-45.562	0.100
769.900	-41.389	0.100
770.000	-61.969	0.100
770.100	-53.659	0.100
770.200	-23.631	0.099
770.300	-18.640	0.099
770.400	-31.215	0.099
770.500	-38.631	0.099
770.600	-32.550	0.099
770.700	-34.050	0.099
770.800	-46.236	0.099
770.900	-57.174	0.099
771.000	-31.617	0.099
771.100	-53.491	0.099
771.200	-34.788	0.099
771.300	-35.708	0.099
771.400	-37.172	0.099
771.500	-52.849	0.099
771.600	-49.315	0.099
771.700	-18.561	0.099
771.800	-24.736	0.099
771.900	-39.841	0.099
772.000	-35.923	0.099
772.100	-67.431	0.099
772.200	-68.374	0.099
772.300	-51.563	0.099
772.400	-42.941	0.099
772.500	-41.379	0.099
772.600	-20.624	0.099
772.700	-28.046	0.099
772.800	-55.940	0.099
772.900	-68.372	0.099
773.000	-37.720	0.099
773.100	-44.117	0.099
773.200	-9.389	0.099
773.300	-40.966	0.099
773.400	-36.341	0.099
773.500	-28.155	0.099
773.600	-37.824	0.099
773.700	-45.317	0.099
773.800	-34.473	0.099
773.900	-46.864	0.099
774.000	-20.516	0.099
774.100	-32.490	0.099
774.200	-31.524	0.099
774.300	-32.412	0.099
774.400	-43.833	0.099
774.500	-38.612	0.099
774.600	-48.341	0.099
774.700	-51.816	0.099
774.800	-49.938	0.099
774.900	-62.331	0.099
775.000	-36.003	0.099
775.100	-32.782	0.099
775.200	-32.798	0.099
775.300	-71.519	0.099
775.400	-51.448	0.099
775.500	-27.082	0.099
775.600	-17.230	0.099
775.700	-13.894	0.099
775.800	-59.364	0.099
775.900	-56.867	0.099
776.000	-38.727	0.099
776.100	-36.359	0.099
776.200	-44.715	0.099
776.300	-32.573	0.099
776.400	-46.119	0.099
776.500	-57.062	0.099
776.600	-41.895	0.099
776.700	-39.204	0.099
776.800	-48.079	0.099
776.900	-36.512	0.099
777.000	-39.726	0.099
777.100	-34.944	0.099
777.200	-51.937	0.099
777.300	-50.916	0.099
777.400	-18.022	0.099
777.500	-32.271	0.099
777.600	-60.139	0.099
777.700	-24.844	0.099
777.800	-34.678	0.099
777.900	-39.602	0.099
778.000	-30.549	0.099
778.100	-21.123	0.099
778.200	-62.049	0.099
778.300	-26.123	0.099
778.400	-31.237	0.099
778.500	-38.382	0.099
778.600	-28.328	0.099
778.700	-25.050	0.099
778.800	-13.802	0.099
778.900	-55.265	0.099
779.000	-54.716	0.099
779.100	-25.048	0.099
779.200	-24.932	0.099
779.300	-18.772	0.099
779.400	-36.268	0.099
779.500	-30.345	0.099
779.600	-34.581	0.099
779.700	-65.132	0.099
779.800	-32.052	0.099
779.900	-36.704	0.099
780.000	-41.902	0.099
780.100	-38.731	0.099
780.200	-39.666	0.099
780.300	-61.473	0.099
780.400	-71.408	0.099
780.500	-49.886	0.099
780.600	-32.288	0.099
780.700	-37.817	0.099
780.800	-22.928	0.099
780.900	-24.858	0.099
781.000	-37.074	0.099
781.100	-41.303	0.099
781.200	-25.543	0.099
781.300	-41.522	0.099
781.400	-19.850	0.099
781.500	-20.747	0.099
781.600	-37.802	0.099
781.700	-11.728	0.099
781.800	-25.103	0.099
781.900	-23.524	0.099
782.000	-3.539	0.099
782.100	25.264	0.099
782.200	3.116	0.099
782.300	7.710	0.099
782.400	3.830	0.099
782.500	-0.808	0.099
782.600	-5.285	0.099
782.700	24.228	0.099
782.800	27.080	0.099
782.900	10.367	0.099
783.000	13.215	0.099
783.100	12.661	0.099
783.200	22.097	0.099
783.300	21.271	0.099
783.400	5.704	0.099
783.500	43.999	0.099
783.600	29.922	0.099
783.700	3.334	0.099
783.800	40.431	0.099
783.900	40.913	0.099
784.000	36.585	0.099
784.100	33.574	0.099
784.200	42.381	0.099
784.300	43.726	0.099
784.400	27.653	0.099
784.500	24.986	0.099
784.600	-5.003	0.099
784.700	20.663	0.099
784.800	13.744	0.099
784.900	30.421	0.099
785.000	11.574	0.099
785.100	51.473	0.099
785.200	63.662	0.099
785.300	39.623	0.099
785.400	33.547	0.099
785.500	8.222	0.099
785.600	9.234	0.099
785.700	43.810	0.099
785.800	35.314	0.099
785.900	46.116	0.099
786.000	32.165	0.099
786.100	21.088	0.099
786.200	20.874	0.099
786.300	45.031	0.099
786.400	1.736	0.099
786.500	30.979	0.099
786.600	6.331	0.099
786.700	32.696	0.099
786.800	49.235	0.099
786.900	27.669	0.099
787.000	24.149	0.099
787.100	40.632	0.099
787.200	13.071	0.099
787.300	43.386	0.099
787.400	43.344	0.099
787.500	33.468	0.099
787.600	34.272	0.099
787.700	29.131	0.099
787.800	42.667	0.099
787.900	32.956	0.099
788.000	26.235	0.099
788.100	17.126	0.099
788.200	18.077	0.099
788.300	36.547	0.099
788.400	34.755	0.099
788.500	49.653	0.099
788.600	63.739	0.099
788.700	37.340	0.099
788.800	30.449	0.099
788.900	35.078	0.099
789.000	37.308	0.099
789.100	35.844	0.099
789.200	44.969	0.099
789.300	59.692	0.099
789.400	25.556	0.099
789.500	50.771	0.099
789.600	21.481	0.099
789.700	57.541	0.099
789.800	58.067	0.099
789.900	68.541	0.099
790.000	54.679	0.099
790.100	49.439	0.099
790.200	33.343	0.099
790.300	49.208	0.099
790.400	54.027	0.099
790.500	44.447	0.099
790.600	56.218	0.099
790.700	60.391	0.099
790.800	53.380	0.099
790.900	60.022	0.099
791.000	38.178	0.099
791.100	46.505	0.099
791.200	60.141	0.099
791.300	70.849	0.099
791.400	88.044	0.099
791.500	51.875	0.099
791.600	55.414	0.099
791.700	55.540	0.099
791.800	57.042	0.099
791.900	57.242	0.099
792.000	57.269	0.099
792.100	65.929	0.099
792.200	75.052	0.099
792.300	39.081	0.099
792.400	65.245	0.099
792.500	66.463	0.099
792.600	57.583	0.099
792.700	36.813	0.099
792.800	106.937	0.099
792.900	93.854	0.099
793.000	96.093	0.099
793.100	84.838	0.099
793.200	65.587	0.099
793.300	57.765	0.099
793.400	71.974	0.099
793.500	76.102	0.099
793.600	69.170	0.099
793.700	81.408	0.099
793.800	76.818	0.099
793.900	112.210	0.099
794.000	103.524	0.099
794.100	98.822	0.099
794.200	90.715	0.099
794.300	76.030	0.099
794.400	92.000	0.099
794.500	106.987	0.099
794.600	101.513	0.099
794.700	57.621	0.099
794.800	95.825	0.099
794.900	87.099	0.099
795.000	90.495	0.099
795.100	90.013	0.099
795.200	72.386	0.099
795.300	108.578	0.099
795.400	107.109	0.099
795.500	122.977	0.099
795.600	96.015	0.099
795.700	91.169	0.099
795.800	112.414	0.099
795.900	83.574	0.099
796.000	93.268	0.099
796.100	126.474	0.099
796.200	78.835	0.099
796.300	121.642	0.099
796.400	122.118	0.099
796.500	110.547	0.099
796.600	124.276	0.099
796.700	116.410	0.099
796.800	94.011	0.099
796.900	113.132	0.099
797.000	119.258	0.099
797.100	103.142	0.099
797.200	84.659	0.099
797.300	116.544	0.099
797.400	145.527	0.099
797.500	129.272	0.099
797.600	133.549	0.099
797.700	133.243	0.099
797.800	119.041	0.099
797.900	89.496	0.099
798.000	119.548	0.099
798.100	124.820	0.099
798.200	121.695	0.099
798.300	93.047	0.099
798.400	113.957	0.099
798.500	104.863	0.099
798.600	130.480	0.099
798.700	132.620	0.099
798.800	129.522	0.099
798.900	134.653	0.099
799.000	133.566	0.099
799.100	136.919	0.099
799.200	176.002	0.099
799.300	155.497	0.099
799.400	137.440	0.099
799.500	122.780	0.100
799.600	136.245	0.099
799.700	157.592	0.099
799.800	134.540	0.099
799.900	132.375	0.099
800.000	134.947	0.099
