time /s	I /nA	E /V
0.100	-10.011	0.099
0.200	1.583	0.099
0.300	-33.221	0.099
0.400	-18.875	0.099
0.500	-0.384	0.099
0.600	1.994	0.100
0.700	-16.754	0.099
0.800	10.397	0.099
0.900	-16.105	0.099
1.000	-18.545	0.100
1.100	-9.617	0.099
1.200	3.472	0.099
1.300	-12.901	0.099
1.400	-18.991	0.099
1.500	-18.683	0.099
1.600	-12.747	0.099
1.700	-8.930	0.099
1.800	-19.699	0.099
1.900	-6.033	0.099
2.000	-9.826	0.100
2.100	-1.165	0.099
2.200	-6.300	0.099
2.300	-15.636	0.099
2.400	-2.221	0.099
2.500	-27.809	0.099
2.600	-11.912	0.099
2.700	1.394	0.099
2.800	-10.713	0.100
2.900	-6.542	0.099
3.000	-34.590	0.099
3.100	-3.143	0.100
3.200	7.562	0.099
3.300	9.897	0.099
3.400	-3.616	0.099
3.500	-10.684	0.099
3.600	-12.485	0.099
3.700	13.017	0.099
3.800	-7.829	0.099
3.900	-7.284	0.099
4.000	-19.455	0.099
4.100	-14.903	0.099
4.200	-20.438	0.099
4.300	-15.891	0.099
4.400	1.680	0.099
4.500	-11.091	0.099
4.600	-0.683	0.099
4.700	-11.176	0.099
4.800	-10.435	0.099
4.900	-2.584	0.099
5.000	9.735	0.099
5.100	4.732	0.099
5.200	-2.673	0.099
5.300	-12.483	0.099
5.400	-30.740	0.099
5.500	-23.496	0.099
5.600	-3.442	0.099
5.700	-18.240	0.099
5.800	-15.124	0.099
5.900	18.406	0.099
6.000	-17.708	0.099
6.100	-1.492	0.099
6.200	7.753	0.099
6.300	-4.851	0.099
6.400	0.112	0.099
6.500	-22.160	0.099
6.600	-17.778	0.099
6.700	-1.974	0.099
6.800	1.937	0.099
6.900	-13.220	0.099
7.000	-7.465	0.099
7.100	-6.270	0.100
7.200	-17.147	0.099
7.300	1.505	0.099
7.400	-7.994	0.099
7.500	17.939	0.099
7.600	-8.709	0.099
7.700	-34.327	0.099
7.800	-1.834	0.099
7.900	-8.003	0.099
8.000	-17.973	0.099
8.100	4.320	0.099
8.200	-2.156	0.099
8.300	-21.610	0.099
8.400	-23.034	0.099
8.500	-19.503	0.099
8.600	-0.629	0.099
8.700	-22.642	0.099
8.800	-9.785	0.099
8.900	-16.944	0.100
9.000	3.333	0.100
9.100	-23.819	0.099
9.200	-4.313	0.099
9.300	0.273	0.099
9.400	-13.621	0.099
9.500	-10.508	0.099
9.600	-9.924	0.100
9.700	5.870	0.100
9.800	-13.396	0.100
9.900	-3.465	0.099
10.000	-7.116	0.099
10.100	2.038	0.099
10.200	-25.671	0.099
10.300	-17.448	0.099
10.400	-16.028	0.099
10.500	-7.543	0.099
10.600	-14.267	0.099
10.700	-4.208	0.099
10.800	-12.568	0.099
10.900	-14.618	0.099
11.000	-19.512	0.099
11.100	-14.965	0.099
11.200	-3.679	0.099
11.300	-6.672	0.099
11.400	-25.267	0.099
11.500	-19.179	0.099
11.600	-2.443	0.099
11.700	-3.362	0.099
11.800	-17.921	0.099
11.900	-17.510	0.100
12.000	5.534	0.099
12.100	-16.482	0.099
12.200	-1.001	0.100
12.300	-10.040	0.100
12.400	-12.471	0.099
12.500	-21.342	0.099
12.600	-14.668	0.099
12.700	-10.880	0.099
12.800	-13.869	0.099
12.900	-13.402	0.099
13.000	-0.788	0.099
13.100	4.400	0.099
13.200	-4.468	0.099
13.300	-15.568	0.099
13.400	-14.750	0.099
13.500	-16.865	0.100
13.600	-20.197	0.099
13.700	8.802	0.099
13.800	-1.120	0.099
13.900	-23.673	0.099
14.000	1.931	0.099
14.100	-10.827	0.099
14.200	-3.689	0.099
14.300	8.824	0.099
14.400	-12.644	0.099
14.500	-13.904	0.099
14.600	-1.069	0.099
14.700	-15.097	0.099
14.800	-5.879	0.099
14.900	2.024	0.099
15.000	-21.237	0.099
15.100	-5.594	0.099
15.200	-6.129	0.099
15.300	-5.239	0.099
15.400	-19.684	0.099
15.500	-10.063	0.099
15.600	-4.396	0.099
15.700	-2.156	0.099
15.800	-6.642	0.099
15.900	-15.320	0.099
16.000	1.418	0.099
16.100	-21.279	0.099
16.200	6.055	0.100
16.300	-0.875	0.099
16.400	-31.719	0.099
16.500	-12.072	0.099
16.600	-14.764	0.099
16.700	-8.251	0.099
16.800	-4.002	0.099
16.900	-2.548	0.099
17.000	-23.478	0.099
17.100	-10.120	0.099
17.200	10.266	0.099
17.300	-22.086	0.099
17.400	-4.597	0.099
17.500	8.069	0.100
17.600	-9.056	0.099
17.700	-1.726	0.099
17.800	-12.266	0.100
17.900	-12.001	0.099
18.000	-10.523	0.099
18.100	-6.673	0.099
18.200	-17.589	0.099
18.300	-36.628	0.099
18.400	6.893	0.099
18.500	-6.288	0.099
18.600	-25.878	0.099
18.700	-45.604	0.099
18.800	-1.381	0.099
18.900	12.328	0.099
19.000	-10.354	0.099
19.100	-11.782	0.099
19.200	-1.795	0.099
19.300	6.505	0.099
19.400	-5.843	0.099
19.500	-1.923	0.099
19.600	-17.835	0.099
19.700	-12.922	0.099
19.800	-14.628	0.099
19.900	-6.131	0.099
20.000	-17.286	0.099
20.100	-16.251	0.099
20.200	1.138	0.099
20.300	-19.282	0.099
20.400	-7.670	0.099
20.500	6.612	0.099
20.600	5.842	0.099
20.700	-16.518	0.099
20.800	6.306	0.099
20.900	-0.642	0.099
21.000	-11.616	0.099
21.100	-11.923	0.099
21.200	-16.595	0.099
21.300	-11.555	0.099
21.400	-16.316	0.099
21.500	-38.224	0.099
21.600	-9.087	0.099
21.700	-25.229	0.099
21.800	-8.294	0.099
21.900	-16.234	0.099
22.000	14.151	0.099
22.100	-10.994	0.099
22.200	4.471	0.099
22.300	-11.805	0.099
22.400	2.690	0.099
22.500	-9.635	0.099
22.600	-14.024	0.099
22.700	-18.710	0.099
22.800	-14.792	0.099
22.900	13.680	0.099
23.000	-1.682	0.099
23.100	-2.687	0.099
23.200	-41.077	0.099
23.300	-30.612	0.099
23.400	-1.367	0.099
23.500	-10.612	0.099
23.600	-20.124	0.099
23.700	3.779	0.099
23.800	-3.805	0.099
23.900	-6.975	0.099
24.000	-4.705	0.099
24.100	-18.260	0.099
24.200	-12.674	0.099
24.300	16.058	0.099
24.400	-9.580	0.099
24.500	-11.907	0.099
24.600	-0.002	0.099
24.700	2.560	0.099
24.800	-29.273	0.099
24.900	-13.562	0.099
25.000	-11.399	0.099
25.100	3.663	0.099
25.200	-4.576	0.099
25.300	-3.062	0.099
25.400	-8.905	0.099
25.500	-15.639	0.099
25.600	-35.003	0.099
25.700	-5.992	0.099
25.800	-8.448	0.099
25.900	-20.291	0.099
26.000	1.177	0.099
26.100	3.572	0.099
26.200	-15.483	0.099
26.300	-15.891	0.099
26.400	-4.225	0.099
26.500	-2.449	0.099
26.600	3.338	0.100
26.700	-13.722	0.099
26.800	4.130	0.099
26.900	-17.116	0.099
27.000	-26.965	0.099
27.100	-15.524	0.099
27.200	3.863	0.099
27.300	-22.376	0.099
27.400	3.806	0.099
27.500	-7.142	0.099
27.600	-16.260	0.099
27.700	-11.742	0.099
27.800	-11.240	0.099
27.900	-2.970	0.099
28.000	7.413	0.099
28.100	18.567	0.099
28.200	-11.029	0.099
28.300	-20.049	0.099
28.400	-10.154	0.099
28.500	10.039	0.099
28.600	-15.654	0.099
28.700	-13.178	0.099
28.800	7.113	0.099
28.900	-7.762	0.099
29.000	-22.724	0.099
29.100	-15.366	0.099
29.200	-17.718	0.099
29.300	4.323	0.099
29.400	-15.147	0.099
29.500	-29.467	0.099
29.600	-26.394	0.099
29.700	2.074	0.099
29.800	-8.050	0.099
29.900	-27.772	0.099
30.000	-16.633	0.099
30.100	-20.648	0.099
30.200	-7.309	0.099
30.300	-11.855	0.099
30.400	-6.822	0.099
30.500	4.633	0.099
30.600	2.122	0.099
30.700	4.116	0.099
30.800	19.233	0.099
30.900	5.038	0.099
31.000	12.843	0.099
31.100	5.228	0.099
31.200	1.007	0.099
31.300	10.325	0.099
31.400	46.999	0.099
31.500	39.311	0.099
31.600	37.901	0.099
31.700	28.733	0.099
31.800	32.302	0.099
31.900	24.417	0.099
32.000	34.859	0.099
32.100	18.628	0.099
32.200	32.978	0.099
32.300	34.481	0.099
32.400	52.064	0.099
32.500	18.832	0.099
32.600	33.890	0.099
32.700	40.201	0.099
32.800	61.638	0.099
32.900	39.437	0.099
33.000	37.394	0.099
33.100	35.180	0.099
33.200	16.249	0.099
33.300	38.278	0.099
33.400	28.776	0.099
33.500	47.388	0.099
33.600	46.123	0.099
33.700	47.049	0.099
33.800	31.933	0.099
33.900	47.088	0.099
34.000	43.949	0.099
34.100	50.204	0.099
34.200	40.465	0.099
34.300	53.851	0.099
34.400	41.981	0.099
34.500	47.627	0.099
34.600	48.932	0.099
34.700	53.551	0.099
34.800	48.436	0.099
34.900	61.139	0.099
35.000	47.706	0.099
35.100	52.669	0.099
35.200	58.314	0.099
35.300	39.361	0.099
35.400	69.799	0.099
35.500	80.588	0.099
35.600	60.249	0.099
35.700	68.127	0.099
35.800	76.417	0.099
35.900	30.629	0.099
36.000	62.164	0.099
36.100	70.151	0.099
36.200	64.026	0.099
36.300	55.182	0.099
36.400	50.965	0.099
36.500	72.320	0.099
36.600	72.532	0.099
36.700	47.859	0.099
36.800	89.145	0.099
36.900	81.256	0.099
37.000	73.240	0.099
37.100	67.975	0.099
37.200	65.765	0.099
37.300	77.739	0.099
37.400	66.883	0.099
37.500	69.684	0.099
37.600	72.265	0.099
37.700	70.963	0.099
37.800	90.157	0.099
37.900	82.052	0.099
38.000	73.507	0.099
38.100	80.693	0.099
38.200	68.017	0.099
38.300	88.036	0.099
38.400	96.501	0.099
38.500	86.527	0.099
38.600	63.819	0.099
38.700	76.666	0.099
38.800	74.517	0.099
38.900	85.668	0.099
39.000	73.437	0.099
39.100	79.334	0.099
39.200	100.881	0.099
39.300	80.433	0.099
39.400	97.903	0.099
39.500	71.451	0.099
39.600	76.678	0.099
39.700	82.301	0.099
39.800	77.009	0.099
39.900	80.373	0.099
40.000	95.063	0.099
40.100	77.561	0.099
40.200	69.990	0.099
40.300	89.455	0.099
40.400	87.637	0.099
40.500	94.633	0.099
40.600	75.020	0.099
40.700	73.895	0.099
40.800	93.750	0.099
40.900	89.606	0.099
41.000	79.136	0.099
41.100	90.948	0.099
41.200	71.562	0.099
41.300	74.888	0.099
41.400	95.339	0.099
41.500	75.253	0.099
41.600	72.328	0.099
41.700	107.756	0.099
41.800	90.134	0.099
41.900	90.540	0.099
42.000	78.292	0.099
42.100	65.518	0.099
42.200	77.572	0.099
42.300	75.150	0.099
42.400	75.108	0.099
42.500	63.551	0.099
42.600	85.019	0.099
42.700	77.603	0.099
42.800	64.257	0.099
42.900	81.586	0.099
43.000	70.823	0.099
43.100	78.028	0.099
43.200	69.292	0.099
43.300	91.438	0.099
43.400	68.762	0.099
43.500	82.567	0.099
43.600	79.205	0.099
43.700	57.594	0.099
43.800	48.996	0.099
43.900	63.581	0.099
44.000	67.264	0.099
44.100	69.719	0.099
44.200	76.733	0.099
44.300	68.599	0.099
44.400	64.947	0.099
44.500	37.858	0.099
44.600	54.158	0.099
44.700	61.178	0.099
44.800	69.038	0.099
44.900	59.567	0.099
45.000	57.166	0.099
45.100	59.269	0.099
45.200	78.996	0.099
45.300	39.182	0.099
45.400	66.428	0.099
45.500	53.920	0.099
45.600	63.734	0.099
45.700	67.333	0.099
45.800	34.372	0.099
45.900	71.880	0.099
46.000	50.536	0.099
46.100	49.689	0.099
46.200	56.761	0.099
46.300	40.672	0.099
46.400	68.611	0.099
46.500	59.398	0.099
46.600	54.899	0.099
46.700	53.198	0.099
46.800	54.350	0.099
46.900	44.368	0.099
47.000	48.710	0.099
47.100	68.913	0.099
47.200	35.074	0.099
47.300	37.620	0.099
47.400	58.965	0.099
47.500	49.125	0.099
47.600	65.127	0.099
47.700	38.337	0.099
47.800	48.286	0.099
47.900	52.218	0.099
48.000	28.145	0.099
48.100	50.008	0.099
48.200	51.620	0.099
48.300	58.692	0.099
48.400	49.818	0.099
48.500	51.554	0.099
48.600	41.058	0.099
48.700	29.974	0.099
48.800	30.245	0.099
48.900	59.394	0.099
49.000	43.451	0.099
49.100	43.583	0.099
49.200	48.355	0.099
49.300	34.416	0.099
49.400	23.978	0.099
49.500	37.521	0.099
49.600	51.553	0.099
49.700	26.878	0.099
49.800	57.068	0.099
49.900	41.136	0.099
50.000	42.145	0.099
50.100	42.480	0.099
50.200	72.844	0.099
50.300	41.051	0.099
50.400	34.655	0.099
50.500	62.420	0.099
50.600	45.976	0.099
50.700	46.954	0.099
50.800	42.789	0.099
50.900	24.347	0.099
51.000	28.276	0.099
51.100	55.242	0.099
51.200	41.821	0.099
51.300	51.153	0.099
51.400	46.397	0.099
51.500	59.065	0.099
51.600	45.067	0.099
51.700	42.300	0.099
51.800	52.309	0.099
51.900	32.246	0.099
52.000	22.139	0.099
52.100	31.928	0.099
52.200	57.151	0.099
52.300	48.013	0.099
52.400	38.427	0.100
52.500	57.503	0.099
52.600	26.949	0.099
52.700	43.006	0.099
52.800	45.757	0.099
52.900	27.061	0.099
53.000	53.039	0.099
53.100	57.477	0.099
53.200	38.201	0.099
53.300	55.548	0.099
53.400	53.536	0.099
53.500	56.737	0.099
53.600	46.461	0.099
53.700	42.976	0.099
53.800	35.683	0.099
53.900	72.643	0.099
54.000	47.245	0.099
54.100	34.837	0.099
54.200	34.037	0.099
54.300	57.146	0.099
54.400	45.955	0.099
54.500	56.048	0.099
54.600	46.223	0.099
54.700	44.818	0.099
54.800	44.695	0.099
54.900	42.050	0.099
55.000	37.637	0.099
55.100	51.352	0.099
55.200	42.087	0.099
55.300	46.452	0.099
55.400	61.788	0.099
55.500	43.075	0.099
55.600	52.129	0.099
55.700	38.809	0.099
55.800	47.754	0.099
55.900	43.362	0.099
56.000	56.044	0.099
56.100	57.529	0.100
56.200	51.128	0.099
56.300	45.041	0.099
56.400	35.577	0.099
56.500	36.192	0.099
56.600	52.214	0.099
56.700	47.645	0.099
56.800	41.144	0.099
56.900	64.243	0.099
57.000	51.838	0.099
57.100	55.634	0.099
57.200	62.737	0.099
57.300	43.700	0.099
57.400	59.460	0.099
57.500	71.490	0.099
57.600	50.490	0.099
57.700	56.714	0.099
57.800	45.833	0.099
57.900	48.816	0.099
58.000	67.311	0.099
58.100	62.553	0.099
58.200	52.739	0.099
58.300	49.210	0.099
58.400	55.450	0.099
58.500	44.960	0.099
58.600	80.832	0.099
58.700	48.667	0.099
58.800	73.563	0.099
58.900	64.424	0.099
59.000	44.713	0.099
59.100	58.029	0.099
59.200	48.458	0.099
59.300	40.691	0.099
59.400	66.744	0.099
59.500	58.867	0.099
59.600	53.714	0.099
59.700	60.754	0.099
59.800	39.745	0.099
59.900	57.472	0.099
60.000	55.528	0.099
60.100	49.328	0.099
60.200	46.542	0.099
60.300	51.413	0.099
60.400	57.836	0.099
60.500	54.398	0.099
60.600	59.045	0.099
60.700	70.703	0.099
60.800	56.622	0.099
60.900	46.299	0.099
61.000	61.410	0.099
61.100	60.703	0.099
61.200	31.115	0.099
61.300	59.320	0.099
61.400	57.434	0.099
61.500	62.507	0.099
61.600	54.540	0.099
61.700	63.388	0.099
61.800	49.246	0.099
61.900	63.546	0.099
62.000	43.988	0.099
62.100	39.622	0.099
62.200	66.786	0.099
62.300	67.147	0.099
62.400	62.761	0.099
62.500	49.628	0.099
62.600	74.693	0.099
62.700	59.122	0.099
62.800	63.949	0.099
62.900	51.546	0.099
63.000	72.846	0.099
63.100	68.887	0.099
63.200	64.076	0.099
63.300	52.961	0.099
63.400	49.908	0.099
63.500	64.324	0.099
63.600	42.129	0.099
63.700	50.378	0.099
63.800	41.223	0.099
63.900	70.374	0.099
64.000	58.801	0.099
64.100	57.611	0.099
64.200	47.996	0.099
64.300	65.671	0.099
64.400	39.701	0.099
64.500	44.577	0.099
64.600	76.016	0.099
64.700	50.114	0.099
64.800	47.363	0.099
64.900	52.821	0.099
65.000	62.353	0.099
65.100	79.111	0.099
65.200	71.385	0.099
65.300	61.234	0.099
65.400	58.196	0.099
65.500	36.192	0.099
65.600	57.745	0.099
65.700	54.294	0.099
65.800	69.328	0.099
65.900	65.920	0.099
66.000	79.087	0.099
66.100	53.146	0.099
66.200	53.160	0.099
66.300	44.135	0.099
66.400	54.765	0.099
66.500	74.671	0.099
66.600	66.028	0.099
66.700	65.909	0.099
66.800	61.921	0.099
66.900	51.283	0.099
67.000	64.789	0.099
67.100	56.304	0.099
67.200	78.396	0.099
67.300	63.430	0.099
67.400	49.402	0.099
67.500	69.233	0.099
67.600	47.221	0.099
67.700	79.200	0.099
67.800	56.560	0.099
67.900	81.214	0.099
68.000	50.392	0.099
68.100	60.052	0.099
68.200	70.850	0.099
68.300	53.193	0.099
68.400	52.863	0.099
68.500	66.680	0.099
68.600	54.042	0.099
68.700	67.618	0.099
68.800	49.448	0.099
68.900	44.815	0.099
69.000	71.487	0.099
69.100	82.416	0.099
69.200	92.720	0.099
69.300	74.697	0.099
69.400	64.158	0.099
69.500	52.821	0.099
69.600	50.831	0.099
69.700	48.825	0.099
69.800	72.428	0.099
69.900	73.982	0.099
70.000	66.535	0.099
70.100	79.273	0.099
70.200	39.802	0.099
70.300	72.574	0.099
70.400	75.271	0.099
70.500	56.392	0.099
70.600	48.939	0.099
70.700	62.935	0.099
70.800	74.703	0.099
70.900	78.670	0.100
71.000	32.897	0.099
71.100	36.755	0.099
71.200	76.246	0.099
71.300	71.814	0.099
71.400	67.693	0.099
71.500	66.337	0.099
71.600	54.674	0.099
71.700	69.624	0.099
71.800	59.452	0.099
71.900	74.754	0.099
72.000	59.580	0.100
72.100	58.148	0.099
72.200	64.994	0.099
72.300	60.099	0.099
72.400	88.361	0.099
72.500	77.314	0.099
72.600	66.471	0.099
72.700	58.742	0.099
72.800	44.489	0.099
72.900	54.551	0.099
73.000	70.643	0.099
73.100	56.552	0.099
73.200	86.780	0.099
73.300	66.440	0.100
73.400	65.758	0.099
73.500	69.467	0.099
73.600	75.812	0.099
73.700	42.987	0.099
73.800	61.245	0.099
73.900	69.626	0.099
74.000	59.667	0.099
74.100	65.448	0.099
74.200	73.993	0.099
74.300	59.218	0.099
74.400	50.445	0.099
74.500	66.422	0.099
74.600	83.291	0.099
74.700	57.882	0.099
74.800	55.370	0.099
74.900	46.719	0.099
75.000	75.095	0.099
75.100	67.649	0.099
75.200	61.888	0.099
75.300	74.562	0.099
75.400	68.618	0.099
75.500	62.937	0.099
75.600	62.119	0.099
75.700	75.345	0.099
75.800	60.655	0.099
75.900	63.090	0.099
76.000	64.775	0.099
76.100	61.592	0.099
76.200	77.394	0.099
76.300	55.518	0.099
76.400	68.376	0.099
76.500	59.491	0.099
76.600	48.290	0.099
76.700	67.220	0.099
76.800	61.955	0.099
76.900	74.803	0.099
77.000	72.794	0.099
77.100	64.210	0.099
77.200	67.839	0.099
77.300	43.992	0.099
77.400	55.135	0.099
77.500	85.990	0.099
77.600	68.266	0.099
77.700	63.000	0.099
77.800	76.336	0.099
77.900	74.343	0.099
78.000	58.067	0.099
78.100	59.909	0.099
78.200	70.315	0.099
78.300	73.443	0.100
78.400	63.901	0.100
78.500	69.018	0.099
78.600	58.041	0.099
78.700	77.644	0.099
78.800	83.558	0.099
78.900	50.908	0.099
79.000	64.944	0.099
79.100	86.530	0.100
79.200	63.884	0.100
79.300	67.228	0.099
79.400	76.510	0.099
79.500	62.532	0.099
79.600	82.444	0.099
79.700	74.846	0.099
79.800	50.775	0.099
79.900	54.817	0.099
80.000	55.922	0.099
80.100	65.424	0.099
80.200	66.760	0.099
80.300	60.513	0.099
80.400	65.487	0.099
80.500	81.921	0.099
80.600	70.730	0.099
80.700	54.308	0.099
80.800	62.407	0.099
80.900	59.861	0.099
81.000	71.704	0.099
81.100	76.309	0.099
81.200	75.222	0.099
81.300	69.370	0.099
81.400	76.986	0.099
81.500	54.266	0.099
81.600	71.640	0.100
81.700	70.235	0.099
81.800	73.573	0.099
81.900	75.219	0.099
82.000	72.352	0.099
82.100	76.241	0.099
82.200	66.530	0.099
82.300	63.288	0.099
82.400	68.730	0.100
82.500	68.748	0.099
82.600	73.838	0.099
82.700	70.225	0.099
82.800	50.524	0.099
82.900	74.218	0.099
83.000	72.650	0.099
83.100	72.007	0.099
83.200	76.603	0.099
83.300	65.130	0.099
83.400	51.882	0.099
83.500	93.883	0.099
83.600	82.692	0.099
83.700	65.202	0.099
83.800	72.873	0.099
83.900	75.547	0.099
84.000	68.904	0.099
84.100	66.443	0.099
84.200	57.298	0.099
84.300	72.461	0.099
84.400	72.051	0.099
84.500	79.502	0.099
84.600	68.708	0.099
84.700	73.096	0.099
84.800	87.236	0.099
84.900	66.283	0.099
85.000	56.520	0.099
85.100	72.531	0.099
85.200	75.841	0.099
85.300	74.161	0.099
85.400	59.460	0.099
85.500	73.348	0.099
85.600	69.742	0.099
85.700	69.872	0.099
85.800	70.862	0.099
85.900	81.813	0.099
86.000	72.288	0.099
86.100	62.810	0.099
86.200	69.214	0.099
86.300	66.132	0.099
86.400	54.371	0.099
86.500	74.418	0.099
86.600	79.777	0.099
86.700	83.667	0.099
86.800	79.539	0.099
86.900	70.041	0.099
87.000	64.577	0.099
87.100	64.392	0.099
87.200	91.983	0.099
87.300	78.901	0.099
87.400	61.926	0.099
87.500	73.184	0.099
87.600	82.078	0.099
87.700	72.721	0.099
87.800	78.339	0.099
87.900	62.694	0.099
88.000	89.033	0.099
88.100	59.311	0.099
88.200	94.205	0.099
88.300	57.080	0.099
88.400	96.469	0.099
88.500	47.703	0.099
88.600	87.435	0.099
88.700	85.087	0.099
88.800	69.266	0.099
88.900	88.375	0.099
89.000	79.581	0.099
89.100	71.357	0.099
89.200	69.753	0.099
89.300	74.873	0.099
89.400	70.917	0.099
89.500	72.076	0.099
89.600	66.762	0.099
89.700	75.560	0.099
89.800	76.491	0.099
89.900	77.595	0.099
90.000	51.543	0.099
90.100	48.855	0.099
90.200	77.247	0.099
90.300	81.243	0.099
90.400	72.486	0.099
90.500	59.406	0.099
90.600	57.003	0.099
90.700	77.906	0.099
90.800	66.340	0.099
90.900	45.857	0.099
91.000	43.335	0.099
91.100	41.147	0.099
91.200	24.945	0.099
91.300	31.056	0.099
91.400	25.408	0.099
91.500	22.841	0.099
91.600	18.141	0.099
91.700	34.598	0.099
91.800	14.536	0.099
91.900	27.232	0.099
92.000	11.849	0.099
92.100	-3.133	0.099
92.200	3.956	0.099
92.300	-5.921	0.099
92.400	0.160	0.099
92.500	0.317	0.099
92.600	-6.283	0.099
92.700	-0.268	0.099
92.800	19.203	0.099
92.900	0.031	0.099
93.000	-9.943	0.099
93.100	-26.245	0.099
93.200	5.412	0.099
93.300	-14.882	0.099
93.400	-11.518	0.099
93.500	-6.652	0.099
93.600	-26.223	0.099
93.700	-22.268	0.099
93.800	-37.576	0.099
93.900	-16.003	0.100
94.000	-23.530	0.099
94.100	-12.609	0.099
94.200	-2.718	0.099
94.300	-17.451	0.099
94.400	-14.977	0.099
94.500	-20.183	0.099
94.600	-31.745	0.099
94.700	-25.300	0.099
94.800	-7.075	0.099
94.900	-25.410	0.099
95.000	-8.288	0.099
95.100	-15.977	0.099
95.200	-26.363	0.099
95.300	-36.368	0.099
95.400	-30.166	0.099
95.500	-22.409	0.099
95.600	-2.405	0.099
95.700	-25.117	0.099
95.800	-34.415	0.099
95.900	-22.509	0.099
96.000	-1.356	0.099
96.100	-39.552	0.099
96.200	-37.604	0.099
96.300	-16.889	0.099
96.400	-11.158	0.099
96.500	-20.800	0.099
96.600	-27.274	0.099
96.700	-22.140	0.099
96.800	-26.551	0.099
96.900	-11.706	0.099
97.000	-33.617	0.099
97.100	-31.832	0.099
97.200	-26.266	0.099
97.300	-15.905	0.099
97.400	-4.693	0.099
97.500	-10.635	0.099
97.600	-6.635	0.099
97.700	-24.786	0.099
97.800	-34.613	0.099
97.900	5.191	0.099
98.000	2.355	0.099
98.100	-3.943	0.099
98.200	-24.178	0.099
98.300	-16.500	0.099
98.400	-40.251	0.099
98.500	-0.310	0.099
98.600	-11.403	0.099
98.700	-11.119	0.099
98.800	-15.397	0.099
98.900	4.561	0.099
99.000	-26.123	0.099
99.100	-35.660	0.099
99.200	-31.159	0.099
99.300	24.307	0.099
99.400	-1.998	0.099
99.500	-23.575	0.099
99.600	0.917	0.099
99.700	-19.391	0.099
99.800	-14.945	0.099
99.900	-26.294	0.099
100.000	-18.492	0.099
100.100	-38.093	0.099
100.200	-14.504	0.099
100.300	-4.437	0.099
100.400	-8.322	0.099
100.500	-14.318	0.099
100.600	-14.039	0.099
100.700	-10.390	0.100
100.800	-36.749	0.099
100.900	-10.677	0.099
101.000	-13.728	0.099
101.100	-18.173	0.099
101.200	-3.102	0.099
101.300	-27.768	0.099
101.400	-28.692	0.099
101.500	-14.932	0.099
101.600	1.214	0.099
101.700	-24.914	0.099
101.800	-19.041	0.099
101.900	-0.697	0.099
102.000	-7.207	0.099
102.100	-19.078	0.099
102.200	-10.116	0.099
102.300	-22.163	0.099
102.400	-17.676	0.099
102.500	-4.554	0.099
102.600	-29.118	0.099
102.700	-19.460	0.099
102.800	-30.493	0.099
102.900	-24.040	0.099
103.000	-24.754	0.099
103.100	-7.276	0.099
103.200	-10.381	0.099
103.300	-15.314	0.099
103.400	-2.141	0.099
103.500	-10.274	0.099
103.600	-25.562	0.099
103.700	-1.273	0.099
103.800	-15.401	0.099
103.900	-29.987	0.099
104.000	-3.872	0.099
104.100	4.082	0.100
104.200	0.906	0.099
104.300	-15.099	0.099
104.400	-25.331	0.099
104.500	-10.462	0.099
104.600	-3.691	0.099
104.700	-9.318	0.099
104.800	-43.087	0.099
104.900	-5.055	0.099
105.000	-20.684	0.099
105.100	-21.339	0.099
105.200	-2.374	0.099
105.300	-21.570	0.099
105.400	5.833	0.099
105.500	-17.364	0.099
105.600	-19.207	0.099
105.700	-27.078	0.099
105.800	-9.837	0.099
105.900	-5.097	0.099
106.000	-11.191	0.099
106.100	-14.478	0.099
106.200	-4.137	0.099
106.300	-23.316	0.099
106.400	-17.814	0.099
106.500	-22.792	0.099
106.600	-19.199	0.099
106.700	-26.469	0.099
106.800	-25.243	0.099
106.900	-18.821	0.099
107.000	-9.787	0.099
107.100	-6.094	0.099
107.200	-17.308	0.099
107.300	-31.899	0.099
107.400	-8.958	0.099
107.500	-8.849	0.099
107.600	-12.310	0.099
107.700	-30.700	0.099
107.800	-31.903	0.099
107.900	-5.002	0.099
108.000	-20.711	0.099
108.100	-13.207	0.099
108.200	-27.981	0.099
108.300	-2.197	0.099
108.400	-11.332	0.099
108.500	-30.278	0.099
108.600	7.749	0.099
108.700	-18.979	0.099
108.800	-22.642	0.099
108.900	-17.842	0.099
109.000	-38.889	0.099
109.100	-14.460	0.099
109.200	-11.326	0.099
109.300	-18.555	0.099
109.400	-20.616	0.099
109.500	-16.955	0.099
109.600	-21.394	0.099
109.700	-12.743	0.099
109.800	-15.125	0.099
109.900	-14.324	0.099
110.000	-27.969	0.099
110.100	-28.011	0.099
110.200	-4.613	0.099
110.300	-20.801	0.099
110.400	-29.882	0.099
110.500	-17.839	0.099
110.600	-32.956	0.099
110.700	-20.274	0.099
110.800	-16.345	0.099
110.900	-36.391	0.099
111.000	-33.439	0.099
111.100	-3.065	0.099
111.200	-8.022	0.099
111.300	-8.834	0.099
111.400	-27.887	0.099
111.500	-22.141	0.099
111.600	-11.242	0.099
111.700	-20.843	0.099
111.800	-8.199	0.099
111.900	-9.051	0.099
112.000	-24.258	0.099
112.100	-26.846	0.099
112.200	-34.306	0.099
112.300	-11.770	0.099
112.400	-26.895	0.099
112.500	-16.929	0.099
112.600	-18.702	0.099
112.700	-19.982	0.099
112.800	-48.244	0.099
112.900	-4.010	0.099
113.000	-20.620	0.099
113.100	-19.441	0.099
113.200	-24.127	0.099
113.300	-22.571	0.099
113.400	-16.653	0.099
113.500	-17.552	0.099
113.600	-29.583	0.099
113.700	-31.635	0.099
113.800	-38.619	0.099
113.900	-23.267	0.099
114.000	-33.284	0.099
114.100	-1.922	0.099
114.200	-18.381	0.099
114.300	-16.143	0.099
114.400	-17.284	0.099
114.500	-23.336	0.099
114.600	-40.298	0.099
114.700	9.088	0.099
114.800	-8.563	0.099
114.900	-26.030	0.099
115.000	-40.159	0.099
115.100	-23.350	0.099
115.200	-25.771	0.099
115.300	-3.105	0.100
115.400	-18.256	0.099
115.500	-9.253	0.099
115.600	-30.767	0.099
115.700	-22.706	0.100
115.800	-25.236	0.099
115.900	-50.640	0.099
116.000	-51.168	0.099
116.100	-32.424	0.099
116.200	3.045	0.099
116.300	-26.144	0.099
116.400	-15.669	0.099
116.500	-22.447	0.099
116.600	-18.184	0.099
116.700	-17.391	0.099
116.800	-41.932	0.099
116.900	-14.048	0.099
117.000	-20.948	0.099
117.100	-16.331	0.099
117.200	-38.923	0.099
117.300	-26.129	0.099
117.400	-20.110	0.099
117.500	-20.229	0.099
117.600	-43.256	0.099
117.700	-2.019	0.099
117.800	-37.039	0.099
117.900	-29.845	0.099
118.000	-10.345	0.099
118.100	-18.003	0.099
118.200	-26.709	0.099
118.300	-29.144	0.099
118.400	-4.387	0.099
118.500	-22.607	0.099
118.600	-28.518	0.099
118.700	-22.570	0.099
118.800	-38.428	0.099
118.900	-25.351	0.099
119.000	-14.504	0.099
119.100	-11.529	0.099
119.200	-25.737	0.099
119.300	-28.165	0.099
119.400	-15.786	0.099
119.500	-23.870	0.099
119.600	-28.069	0.099
119.700	-19.044	0.099
119.800	-35.531	0.099
119.900	-14.989	0.099
120.000	-0.652	0.099
120.100	-29.070	0.099
120.200	-25.793	0.099
120.300	-27.395	0.099
120.400	-32.583	0.099
120.500	-29.510	0.099
120.600	-11.736	0.099
120.700	-23.983	0.099
120.800	-24.655	0.099
120.900	-29.795	0.099
121.000	-31.421	0.099
121.100	-9.133	0.099
121.200	-8.198	0.099
121.300	-35.756	0.099
121.400	-6.819	0.099
121.500	-38.847	0.099
121.600	-7.297	0.099
121.700	-39.466	0.099
121.800	-12.806	0.099
121.900	-24.155	0.099
122.000	-26.869	0.099
122.100	-26.568	0.099
122.200	-29.815	0.099
122.300	-31.510	0.099
122.400	-19.028	0.099
122.500	-29.613	0.099
122.600	-37.584	0.099
122.700	-22.932	0.099
122.800	-60.885	0.099
122.900	-33.734	0.099
123.000	-8.978	0.099
123.100	-19.253	0.099
123.200	-17.820	0.099
123.300	-32.167	0.099
123.400	-30.527	0.099
123.500	-23.539	0.099
123.600	-28.435	0.099
123.700	-22.810	0.099
123.800	-27.505	0.099
123.900	-25.203	0.099
124.000	-15.801	0.099
124.100	-17.149	0.099
124.200	-56.085	0.099
124.300	-27.092	0.099
124.400	-15.995	0.099
124.500	-26.233	0.099
124.600	-26.177	0.099
124.700	-19.368	0.099
124.800	-26.935	0.099
124.900	-21.469	0.099
125.000	-39.695	0.099
125.100	-32.424	0.099
125.200	-34.056	0.099
125.300	-22.176	0.099
125.400	-47.291	0.099
125.500	-28.388	0.099
125.600	-24.530	0.099
125.700	-19.615	0.099
125.800	-27.820	0.099
125.900	-41.802	0.099
126.000	-13.797	0.099
126.100	-31.861	0.099
126.200	-14.317	0.099
126.300	-24.460	0.099
126.400	-44.135	0.099
126.500	-30.888	0.099
126.600	0.609	0.099
126.700	-24.656	0.099
126.800	-28.098	0.099
126.900	-29.117	0.099
127.000	-26.927	0.099
127.100	-28.699	0.099
127.200	-34.712	0.099
127.300	-30.235	0.099
127.400	-25.726	0.099
127.500	-25.748	0.099
127.600	-37.545	0.099
127.700	-14.279	0.099
127.800	-13.811	0.099
127.900	-29.706	0.099
128.000	-12.674	0.099
128.100	-25.291	0.099
128.200	-17.839	0.099
128.300	-52.974	0.099
128.400	-27.029	0.099
128.500	-31.350	0.099
128.600	-22.030	0.099
128.700	-15.456	0.099
128.800	-13.019	0.099
128.900	-16.728	0.099
129.000	-32.105	0.099
129.100	-44.348	0.099
129.200	-40.640	0.099
129.300	-23.656	0.099
129.400	-13.393	0.099
129.500	-21.744	0.099
129.600	-21.775	0.099
129.700	-13.895	0.099
129.800	-30.058	0.099
129.900	-27.361	0.099
130.000	-40.607	0.099
130.100	-14.997	0.099
130.200	-31.791	0.099
130.300	-11.739	0.099
130.400	-26.980	0.099
130.500	-42.590	0.099
130.600	-52.113	0.099
130.700	-16.337	0.099
130.800	-32.481	0.099
130.900	-36.930	0.099
131.000	-9.436	0.099
131.100	-23.138	0.099
131.200	-30.749	0.099
131.300	-22.258	0.099
131.400	-44.905	0.099
131.500	-19.561	0.099
131.600	5.189	0.099
131.700	-37.981	0.099
131.800	-31.879	0.099
131.900	-41.751	0.099
132.000	-20.469	0.099
132.100	-35.684	0.099
132.200	-16.826	0.099
132.300	-17.985	0.099
132.400	-30.938	0.099
132.500	-23.483	0.099
132.600	-31.878	0.099
132.700	-9.771	0.099
132.800	-27.860	0.099
132.900	-36.948	0.099
133.000	-22.148	0.099
133.100	-13.254	0.099
133.200	-23.095	0.099
133.300	-35.948	0.099
133.400	-37.483	0.099
133.500	-17.509	0.099
133.600	-40.155	0.099
133.700	-10.283	0.099
133.800	-28.018	0.099
133.900	-23.021	0.099
134.000	-44.976	0.099
134.100	-19.423	0.099
134.200	-24.218	0.099
134.300	-14.540	0.099
134.400	-29.209	0.099
134.500	-33.256	0.099
134.600	-36.738	0.099
134.700	-17.210	0.099
134.800	-41.095	0.099
134.900	-26.631	0.099
135.000	-30.393	0.099
135.100	-23.439	0.099
135.200	-31.817	0.099
135.300	-38.878	0.099
135.400	-38.360	0.099
135.500	-34.792	0.099
135.600	-31.890	0.099
135.700	-2.214	0.099
135.800	-18.868	0.099
135.900	-10.477	0.099
136.000	-23.640	0.099
136.100	-18.987	0.099
136.200	-16.678	0.099
136.300	-26.232	0.099
136.400	-27.553	0.099
136.500	-26.939	0.099
136.600	-35.258	0.099
136.700	-20.260	0.099
136.800	-34.100	0.099
136.900	-21.417	0.099
137.000	-24.228	0.099
137.100	-44.868	0.099
137.200	-14.815	0.099
137.300	-23.949	0.099
137.400	-25.413	0.099
137.500	-25.958	0.099
137.600	-38.452	0.099
137.700	-10.484	0.099
137.800	-19.993	0.099
137.900	-21.710	0.099
138.000	-28.331	0.099
138.100	-20.557	0.099
138.200	-31.192	0.099
138.300	-22.567	0.099
138.400	-19.674	0.099
138.500	-27.892	0.099
138.600	-21.617	0.099
138.700	-28.344	0.099
138.800	-19.019	0.099
138.900	-18.529	0.099
139.000	-19.998	0.099
139.100	-11.298	0.099
139.200	-31.485	0.099
139.300	-27.720	0.099
139.400	-25.047	0.099
139.500	-28.030	0.099
139.600	-18.092	0.099
139.700	-31.358	0.099
139.800	-28.657	0.099
139.900	-25.083	0.099
140.000	-16.604	0.099
140.100	2.864	0.099
140.200	-25.967	0.099
140.300	-37.991	0.099
140.400	-22.626	0.099
140.500	-21.602	0.099
140.600	-19.907	0.099
140.700	-12.165	0.099
140.800	-37.482	0.099
140.900	-33.718	0.099
141.000	-24.051	0.099
141.100	-31.877	0.099
141.200	-24.862	0.099
141.300	-42.128	0.099
141.400	-19.636	0.099
141.500	-34.358	0.099
141.600	-23.196	0.099
141.700	-10.551	0.099
141.800	-20.525	0.099
141.900	-17.810	0.099
142.000	-19.298	0.099
142.100	-26.705	0.099
142.200	-24.795	0.099
142.300	-12.136	0.099
142.400	-33.001	0.099
142.500	-23.779	0.099
142.600	-32.376	0.099
142.700	-24.647	0.099
142.800	-32.018	0.099
142.900	-38.091	0.099
143.000	-9.693	0.099
143.100	-7.997	0.099
143.200	-44.712	0.099
143.300	-19.425	0.099
143.400	-9.728	0.099
143.500	-13.414	0.099
143.600	-30.843	0.099
143.700	-27.826	0.099
143.800	-12.115	0.099
143.900	-13.538	0.099
144.000	-32.618	0.099
144.100	-21.449	0.099
144.200	-23.041	0.099
144.300	-28.643	0.099
144.400	-23.237	0.099
144.500	-17.014	0.099
144.600	-24.702	0.099
144.700	-18.635	0.099
144.800	-28.499	0.099
144.900	-29.010	0.099
145.000	-28.415	0.099
145.100	-36.942	0.099
145.200	-23.380	0.099
145.300	-15.359	0.099
145.400	-21.455	0.099
145.500	-15.898	0.099
145.600	-19.195	0.099
145.700	-14.563	0.099
145.800	-28.256	0.099
145.900	-28.196	0.099
146.000	-46.462	0.099
146.100	-38.798	0.099
146.200	-26.407	0.099
146.300	-3.146	0.099
146.400	-3.873	0.099
146.500	-9.785	0.099
146.600	-13.644	0.099
146.700	-20.556	0.099
146.800	-20.653	0.099
146.900	-35.045	0.099
147.000	-23.850	0.099
147.100	-30.278	0.099
147.200	-19.287	0.099
147.300	-21.634	0.099
147.400	-17.450	0.099
147.500	-29.925	0.099
147.600	-25.965	0.099
147.700	-15.703	0.099
147.800	-27.024	0.099
147.900	-34.337	0.099
148.000	-35.859	0.099
148.100	-11.932	0.099
148.200	-28.016	0.099
148.300	-16.745	0.099
148.400	-12.060	0.099
148.500	-40.209	0.099
148.600	-29.786	0.099
148.700	-22.708	0.099
148.800	-6.933	0.099
148.900	-34.959	0.099
149.000	-58.232	0.099
149.100	-19.994	0.099
149.200	-23.680	0.099
149.300	-18.009	0.099
149.400	-19.172	0.099
149.500	-11.382	0.099
149.600	-36.027	0.099
149.700	-50.366	0.099
149.800	-17.633	0.099
149.900	-9.065	0.099
150.000	-14.648	0.099
150.100	-12.514	0.099
150.200	-36.257	0.099
150.300	-30.493	0.099
150.400	1.307	0.099
150.500	-20.605	0.099
150.600	-20.423	0.099
150.700	-13.052	0.099
150.800	-21.833	0.099
150.900	-28.294	0.099
151.000	-21.748	0.099
151.100	-28.039	0.099
151.200	-7.619	0.099
151.300	-22.884	0.099
151.400	-26.220	0.099
151.500	-41.800	0.099
151.600	-19.500	0.099
151.700	-26.967	0.099
151.800	-11.734	0.099
151.900	-7.691	0.099
152.000	-10.602	0.099
152.100	-31.906	0.099
152.200	-13.957	0.099
152.300	-17.953	0.099
152.400	-24.072	0.099
152.500	-40.984	0.099
152.600	-46.008	0.099
152.700	-22.795	0.099
152.800	-15.920	0.099
152.900	-14.032	0.099
153.000	-24.761	0.099
153.100	-11.947	0.099
153.200	-36.022	0.099
153.300	-44.182	0.099
153.400	5.286	0.099
153.500	3.632	0.099
153.600	-28.282	0.099
153.700	-14.825	0.099
153.800	-39.607	0.099
153.900	-7.145	0.099
154.000	-48.420	0.099
154.100	-11.515	0.099
154.200	-22.202	0.099
154.300	-16.082	0.099
154.400	-17.506	0.099
154.500	-15.268	0.099
154.600	-8.964	0.099
154.700	-17.614	0.099
154.800	-37.292	0.099
154.900	-32.543	0.099
155.000	-19.209	0.099
155.100	-30.806	0.099
155.200	-47.192	0.099
155.300	-27.333	0.099
155.400	-18.203	0.099
155.500	-18.804	0.099
155.600	13.042	0.099
155.700	-18.434	0.099
155.800	-23.604	0.099
155.900	-29.145	0.099
156.000	-36.464	0.099
156.100	-25.166	0.099
156.200	-23.535	0.099
156.300	-9.735	0.099
156.400	-29.109	0.099
156.500	-37.956	0.099
156.600	-19.481	0.099
156.700	-9.907	0.099
156.800	-25.068	0.099
156.900	-23.794	0.099
157.000	-7.619	0.099
157.100	-21.072	0.099
157.200	-11.743	0.099
157.300	-26.895	0.099
157.400	-7.011	0.099
157.500	-16.906	0.099
157.600	-44.368	0.099
157.700	-6.757	0.099
157.800	-7.548	0.099
157.900	-10.588	0.099
158.000	-10.847	0.099
158.100	-19.406	0.099
158.200	-16.591	0.099
158.300	-26.259	0.099
158.400	-25.493	0.099
158.500	-17.920	0.099
158.600	-9.432	0.099
158.700	-23.228	0.099
158.800	-9.581	0.099
158.900	-22.599	0.099
159.000	-12.752	0.099
159.100	-14.923	0.099
159.200	-42.491	0.099
159.300	-7.048	0.099
159.400	-29.068	0.099
159.500	-29.050	0.099
159.600	1.449	0.099
159.700	-16.621	0.099
159.800	-21.746	0.099
159.900	-21.020	0.099
160.000	-2.815	0.099
160.100	-41.388	0.099
160.200	-32.088	0.099
160.300	-19.881	0.099
160.400	-27.505	0.099
160.500	-4.235	0.099
160.600	-20.895	0.099
160.700	-17.118	0.099
160.800	-31.224	0.099
160.900	-24.795	0.099
161.000	-19.385	0.099
161.100	-11.637	0.099
161.200	-32.945	0.099
161.300	-19.913	0.099
161.400	-19.687	0.099
161.500	-25.698	0.099
161.600	-20.691	0.099
161.700	-25.877	0.099
161.800	-11.403	0.099
161.900	-24.940	0.099
162.000	-14.016	0.099
162.100	-31.761	0.099
162.200	-9.045	0.099
162.300	-28.240	0.099
162.400	-31.805	0.099
162.500	-16.447	0.099
162.600	-2.149	0.099
162.700	-29.695	0.099
162.800	-18.398	0.099
162.900	-15.863	0.099
163.000	-34.734	0.099
163.100	-27.383	0.099
163.200	-16.503	0.099
163.300	-18.586	0.099
163.400	-16.585	0.099
163.500	-11.333	0.099
163.600	-17.509	0.099
163.700	-12.394	0.099
163.800	-7.888	0.099
163.900	-20.567	0.099
164.000	-19.818	0.099
164.100	-27.721	0.099
164.200	-14.830	0.099
164.300	-24.118	0.099
164.400	-28.488	0.099
164.500	-12.117	0.099
164.600	-13.291	0.099
164.700	-21.681	0.099
164.800	-21.484	0.099
164.900	-23.174	0.099
165.000	0.177	0.099
165.100	-17.017	0.099
165.200	-33.171	0.099
165.300	-49.493	0.099
165.400	-26.569	0.099
165.500	-14.105	0.099
165.600	-25.455	0.099
165.700	-8.563	0.099
165.800	-7.238	0.099
165.900	-18.610	0.099
166.000	-34.054	0.099
166.100	-10.707	0.099
166.200	-12.413	0.099
166.300	-7.625	0.099
166.400	-48.040	0.099
166.500	-28.945	0.099
166.600	-9.787	0.099
166.700	-11.645	0.099
166.800	-30.201	0.099
166.900	-22.212	0.099
167.000	-29.286	0.099
167.100	-2.680	0.099
167.200	-22.087	0.099
167.300	-13.844	0.099
167.400	-29.262	0.099
167.500	-30.761	0.099
167.600	-19.655	0.099
167.700	-17.166	0.099
167.800	2.106	0.099
167.900	-10.201	0.099
168.000	-15.546	0.099
168.100	-11.930	0.099
168.200	-15.433	0.099
168.300	-11.289	0.099
168.400	-24.873	0.099
168.500	-31.344	0.099
168.600	-19.768	0.099
168.700	-14.492	0.099
168.800	-12.785	0.099
168.900	-22.251	0.099
169.000	-19.970	0.099
169.100	-17.714	0.099
169.200	-26.980	0.099
169.300	-13.705	0.099
169.400	-17.595	0.099
169.500	-7.817	0.099
169.600	-11.199	0.099
169.700	-3.951	0.099
169.800	-17.247	0.099
169.900	-19.945	0.099
170.000	-31.815	0.099
170.100	-12.407	0.099
170.200	-22.723	0.099
170.300	-12.981	0.099
170.400	-3.236	0.099
170.500	-8.713	0.099
170.600	-22.123	0.099
170.700	-20.957	0.099
170.800	-25.587	0.099
170.900	2.370	0.099
171.000	-15.723	0.099
171.100	-19.330	0.099
171.200	-11.713	0.099
171.300	-18.892	0.099
171.400	-19.030	0.099
171.500	-21.433	0.099
171.600	-3.346	0.099
171.700	-21.007	0.099
171.800	-44.147	0.099
171.900	-32.098	0.099
172.000	-23.688	0.099
172.100	-26.915	0.099
172.200	23.691	0.099
172.300	-1.353	0.099
172.400	-20.243	0.099
172.500	-10.192	0.099
172.600	-21.456	0.099
172.700	-12.823	0.099
172.800	-18.631	0.099
172.900	-14.930	0.099
173.000	-25.642	0.099
173.100	-37.195	0.099
173.200	-21.210	0.099
173.300	-4.414	0.099
173.400	1.520	0.099
173.500	-21.086	0.099
173.600	-15.462	0.099
173.700	-24.747	0.099
173.800	-16.000	0.099
173.900	-17.077	0.099
174.000	-31.264	0.099
174.100	-9.284	0.099
174.200	-16.823	0.099
174.300	-27.259	0.099
174.400	-45.206	0.099
174.500	-38.084	0.099
174.600	-4.357	0.099
174.700	10.461	0.099
174.800	-3.254	0.099
174.900	-3.700	0.099
175.000	-6.764	0.099
175.100	-19.899	0.099
175.200	-16.708	0.099
175.300	-29.108	0.099
175.400	-22.352	0.099
175.500	-44.946	0.099
175.600	-11.751	0.099
175.700	-17.190	0.099
175.800	-19.480	0.099
175.900	-22.869	0.099
176.000	-25.910	0.099
176.100	-24.949	0.099
176.200	-21.240	0.099
176.300	-23.424	0.099
176.400	-21.662	0.099
176.500	-27.939	0.099
176.600	-29.760	0.099
176.700	-1.795	0.099
176.800	-3.344	0.099
176.900	-17.441	0.099
177.000	-8.003	0.099
177.100	-22.707	0.099
177.200	-4.308	0.099
177.300	-24.447	0.099
177.400	-26.411	0.099
177.500	-25.347	0.099
177.600	-20.352	0.099
177.700	-21.376	0.099
177.800	-10.730	0.099
177.900	-19.140	0.099
178.000	-24.390	0.099
178.100	-9.563	0.099
178.200	-20.890	0.099
178.300	-25.551	0.099
178.400	-13.800	0.099
178.500	-8.182	0.099
178.600	-5.592	0.099
178.700	-3.935	0.099
178.800	-17.116	0.099
178.900	-53.346	0.099
179.000	-24.130	0.099
179.100	-26.468	0.099
179.200	-18.361	0.099
179.300	-16.932	0.099
179.400	-7.071	0.099
179.500	-0.627	0.099
179.600	-18.520	0.099
179.700	-26.510	0.099
179.800	3.057	0.099
179.900	-15.474	0.099
180.000	-7.578	0.099
180.100	-12.197	0.099
180.200	-17.734	0.099
180.300	-19.422	0.099
180.400	-36.713	0.099
180.500	-20.886	0.099
180.600	-25.923	0.099
180.700	-4.614	0.099
180.800	-14.224	0.099
180.900	8.087	0.099
181.000	16.333	0.099
181.100	29.534	0.099
181.200	33.164	0.099
181.300	27.113	0.099
181.400	28.302	0.099
181.500	47.421	0.099
181.600	45.774	0.099
181.700	42.103	0.099
181.800	41.401	0.099
181.900	50.403	0.099
182.000	65.304	0.099
182.100	49.676	0.099
182.200	64.341	0.099
182.300	27.022	0.099
182.400	40.547	0.099
182.500	65.149	0.099
182.600	42.002	0.099
182.700	52.449	0.099
182.800	60.496	0.099
182.900	52.483	0.099
183.000	44.383	0.099
183.100	57.960	0.099
183.200	41.216	0.099
183.300	40.356	0.099
183.400	25.903	0.099
183.500	49.826	0.099
183.600	24.584	0.099
183.700	55.322	0.099
183.800	29.535	0.099
183.900	40.955	0.099
184.000	46.944	0.099
184.100	43.227	0.099
184.200	44.667	0.099
184.300	29.912	0.099
184.400	37.952	0.099
184.500	8.437	0.099
184.600	24.265	0.099
184.700	50.714	0.099
184.800	38.989	0.099
184.900	16.433	0.099
185.000	42.229	0.099
185.100	51.073	0.099
185.200	33.567	0.099
185.300	43.225	0.099
185.400	31.657	0.099
185.500	28.981	0.099
185.600	31.354	0.099
185.700	24.932	0.099
185.800	29.231	0.099
185.900	25.469	0.099
186.000	21.343	0.099
186.100	40.033	0.099
186.200	18.150	0.099
186.300	18.427	0.099
186.400	26.826	0.099
186.500	27.925	0.099
186.600	38.400	0.099
186.700	32.614	0.099
186.800	40.439	0.099
186.900	34.574	0.099
187.000	49.215	0.099
187.100	32.293	0.099
187.200	36.963	0.099
187.300	37.308	0.099
187.400	39.478	0.099
187.500	24.440	0.099
187.600	36.874	0.099
187.700	47.838	0.099
187.800	69.409	0.099
187.900	43.117	0.099
188.000	27.520	0.099
188.100	48.214	0.099
188.200	59.899	0.099
188.300	56.635	0.099
188.400	33.820	0.099
188.500	34.155	0.099
188.600	52.293	0.099
188.700	50.834	0.099
188.800	58.390	0.099
188.900	55.744	0.099
189.000	46.425	0.099
189.100	63.665	0.099
189.200	56.902	0.099
189.300	64.919	0.099
189.400	70.764	0.099
189.500	62.465	0.099
189.600	58.418	0.099
189.700	68.130	0.099
189.800	51.412	0.099
189.900	42.837	0.099
190.000	61.320	0.099
190.100	66.974	0.099
190.200	68.796	0.099
190.300	72.742	0.099
190.400	78.569	0.099
190.500	69.860	0.099
190.600	77.229	0.099
190.700	64.336	0.099
190.800	94.420	0.099
190.900	94.460	0.099
191.000	90.051	0.099
191.100	70.696	0.099
191.200	74.251	0.099
191.300	80.047	0.099
191.400	82.568	0.099
191.500	66.312	0.099
191.600	67.146	0.099
191.700	97.565	0.099
191.800	82.331	0.099
191.900	78.401	0.099
192.000	55.035	0.099
192.100	104.673	0.099
192.200	96.900	0.099
192.300	73.350	0.099
192.400	85.718	0.099
192.500	98.161	0.099
192.600	79.230	0.099
192.700	90.895	0.099
192.800	75.519	0.099
192.900	72.245	0.099
193.000	98.740	0.099
193.100	110.094	0.099
193.200	106.745	0.099
193.300	94.318	0.099
193.400	64.078	0.099
193.500	78.846	0.099
193.600	103.781	0.099
193.700	85.825	0.099
193.800	103.930	0.099
193.900	76.158	0.099
194.000	103.247	0.099
194.100	87.630	0.099
194.200	91.583	0.099
194.300	84.635	0.099
194.400	103.417	0.099
194.500	103.092	0.099
194.600	93.323	0.099
194.700	79.621	0.099
194.800	87.096	0.099
194.900	94.535	0.099
195.000	98.794	0.099
195.100	109.178	0.099
195.200	106.205	0.099
195.300	87.189	0.099
195.400	96.519	0.099
195.500	92.408	0.099
195.600	87.626	0.099
195.700	109.263	0.099
195.800	107.074	0.099
195.900	99.145	0.099
196.000	91.285	0.099
196.100	82.434	0.099
196.200	90.245	0.099
196.300	88.109	0.099
196.400	90.932	0.099
196.500	112.210	0.099
196.600	81.465	0.099
196.700	73.061	0.099
196.800	114.587	0.099
196.900	88.965	0.099
197.000	97.537	0.099
197.100	104.140	0.099
197.200	79.540	0.099
197.300	88.579	0.099
197.400	72.211	0.099
197.500	95.500	0.099
197.600	101.591	0.099
197.700	95.891	0.099
197.800	118.800	0.099
197.900	106.328	0.099
198.000	94.436	0.099
198.100	93.562	0.099
198.200	89.014	0.099
198.300	95.408	0.099
198.400	108.912	0.099
198.500	89.371	0.099
198.600	92.321	0.099
198.700	102.131	0.099
198.800	97.935	0.099
198.900	100.432	0.099
199.000	89.426	0.099
199.100	87.320	0.099
199.200	88.736	0.099
199.300	100.477	0.099
199.400	86.551	0.099
199.500	94.084	0.099
199.600	89.716	0.099
199.700	95.202	0.099
199.800	83.246	0.099
199.900	85.342	0.099
200.000	108.068	0.099
200.100	84.539	0.099
200.200	88.502	0.099
200.300	104.128	0.099
200.400	87.873	0.099
200.500	100.857	0.100
200.600	92.566	0.099
200.700	88.413	0.099
200.800	90.652	0.099
200.900	88.782	0.099
201.000	86.347	0.099
201.100	96.168	0.099
201.200	78.055	0.099
201.300	81.969	0.099
201.400	99.565	0.099
201.500	114.115	0.099
201.600	91.082	0.099
201.700	91.914	0.099
201.800	93.523	0.099
201.900	96.071	0.099
202.000	82.589	0.099
202.100	83.455	0.099
202.200	81.256	0.099
202.300	94.515	0.099
202.400	69.926	0.099
202.500	86.684	0.099
202.600	90.238	0.099
202.700	105.109	0.099
202.800	99.616	0.099
202.900	77.088	0.099
203.000	109.264	0.099
203.100	90.626	0.099
203.200	90.315	0.099
203.300	95.547	0.099
203.400	85.180	0.099
203.500	79.480	0.099
203.600	89.628	0.099
203.700	81.058	0.099
203.800	93.707	0.099
203.900	108.384	0.099
204.000	86.683	0.099
204.100	82.637	0.099
204.200	101.056	0.099
204.300	103.511	0.099
204.400	84.354	0.099
204.500	97.625	0.099
204.600	92.528	0.099
204.700	85.412	0.099
204.800	96.636	0.099
204.900	96.904	0.099
205.000	96.740	0.099
205.100	93.193	0.099
205.200	88.648	0.099
205.300	86.868	0.099
205.400	80.218	0.099
205.500	80.680	0.099
205.600	83.847	0.099
205.700	94.432	0.099
205.800	90.982	0.099
205.900	79.944	0.099
206.000	91.227	0.099
206.100	70.648	0.099
206.200	106.666	0.099
206.300	114.496	0.099
206.400	78.587	0.099
206.500	92.835	0.099
206.600	96.132	0.099
206.700	91.827	0.099
206.800	86.041	0.099
206.900	78.627	0.099
207.000	87.177	0.099
207.100	96.968	0.099
207.200	89.515	0.099
207.300	96.333	0.099
207.400	82.617	0.099
207.500	96.112	0.099
207.600	100.749	0.099
207.700	104.675	0.099
207.800	86.358	0.099
207.900	99.587	0.099
208.000	92.751	0.099
208.100	97.887	0.099
208.200	88.589	0.099
208.300	94.924	0.099
208.400	94.253	0.099
208.500	93.639	0.099
208.600	80.645	0.099
208.700	111.359	0.099
208.800	74.619	0.099
208.900	89.130	0.099
209.000	94.490	0.099
209.100	90.890	0.099
209.200	72.267	0.099
209.300	78.461	0.099
209.400	91.891	0.099
209.500	85.531	0.099
209.600	91.161	0.099
209.700	95.935	0.099
209.800	79.766	0.099
209.900	86.888	0.099
210.000	90.706	0.099
210.100	91.536	0.099
210.200	97.039	0.099
210.300	91.308	0.099
210.400	77.651	0.099
210.500	74.330	0.099
210.600	82.480	0.099
210.700	91.396	0.099
210.800	86.171	0.099
210.900	66.669	0.099
211.000	83.079	0.099
211.100	96.869	0.099
211.200	99.843	0.099
211.300	97.242	0.099
211.400	95.058	0.099
211.500	85.801	0.099
211.600	75.601	0.099
211.700	80.552	0.099
211.800	86.802	0.099
211.900	81.627	0.099
212.000	81.897	0.099
212.100	87.530	0.099
212.200	89.721	0.099
212.300	59.802	0.099
212.400	97.946	0.099
212.500	89.770	0.099
212.600	73.643	0.099
212.700	105.056	0.099
212.800	85.552	0.099
212.900	94.176	0.099
213.000	89.860	0.099
213.100	91.311	0.099
213.200	84.538	0.099
213.300	86.118	0.099
213.400	80.406	0.099
213.500	90.606	0.099
213.600	78.106	0.099
213.700	92.818	0.099
213.800	87.844	0.099
213.900	89.332	0.099
214.000	92.341	0.099
214.100	95.184	0.099
214.200	102.100	0.099
214.300	86.523	0.099
214.400	92.013	0.099
214.500	81.970	0.099
214.600	72.008	0.099
214.700	93.962	0.099
214.800	99.096	0.099
214.900	82.389	0.099
215.000	97.536	0.099
215.100	79.154	0.099
215.200	101.138	0.099
215.300	96.236	0.099
215.400	69.031	0.099
215.500	99.187	0.099
215.600	78.535	0.099
215.700	87.782	0.099
215.800	97.407	0.099
215.900	102.353	0.099
216.000	98.974	0.099
216.100	90.821	0.099
216.200	95.215	0.099
216.300	78.966	0.099
216.400	83.205	0.099
216.500	78.731	0.099
216.600	107.943	0.099
216.700	88.635	0.099
216.800	71.317	0.099
216.900	94.977	0.099
217.000	76.224	0.099
217.100	75.567	0.099
217.200	79.994	0.099
217.300	94.596	0.099
217.400	102.728	0.099
217.500	90.084	0.099
217.600	88.937	0.099
217.700	95.443	0.099
217.800	67.825	0.099
217.900	95.035	0.099
218.000	81.910	0.099
218.100	62.090	0.099
218.200	96.687	0.099
218.300	104.980	0.099
218.400	84.594	0.099
218.500	90.811	0.099
218.600	90.837	0.099
218.700	96.057	0.099
218.800	69.859	0.099
218.900	82.178	0.099
219.000	81.655	0.099
219.100	89.167	0.099
219.200	79.057	0.099
219.300	86.920	0.099
219.400	94.489	0.099
219.500	81.627	0.099
219.600	79.359	0.099
219.700	90.483	0.099
219.800	86.025	0.099
219.900	93.221	0.099
220.000	84.098	0.099
220.100	97.849	0.099
220.200	83.574	0.099
220.300	64.734	0.099
220.400	86.154	0.099
220.500	77.585	0.099
220.600	98.284	0.099
220.700	84.521	0.099
220.800	79.804	0.099
220.900	102.577	0.099
221.000	89.193	0.099
221.100	91.854	0.099
221.200	87.889	0.099
221.300	78.874	0.099
221.400	98.512	0.099
221.500	83.310	0.099
221.600	88.155	0.099
221.700	77.769	0.099
221.800	95.268	0.099
221.900	73.075	0.099
222.000	101.824	0.099
222.100	68.884	0.099
222.200	97.682	0.099
222.300	96.796	0.099
222.400	94.600	0.099
222.500	95.454	0.099
222.600	93.313	0.099
222.700	88.702	0.099
222.800	83.548	0.099
222.900	75.103	0.099
223.000	101.311	0.099
223.100	99.884	0.099
223.200	99.447	0.099
223.300	87.065	0.099
223.400	82.308	0.099
223.500	82.182	0.099
223.600	88.171	0.099
223.700	77.809	0.099
223.800	85.661	0.099
223.900	93.838	0.099
224.000	91.992	0.099
224.100	81.498	0.099
224.200	87.276	0.099
224.300	85.425	0.099
224.400	73.763	0.099
224.500	90.569	0.099
224.600	86.309	0.099
224.700	88.179	0.099
224.800	75.636	0.099
224.900	102.985	0.099
225.000	84.530	0.099
225.100	96.238	0.099
225.200	84.191	0.099
225.300	84.633	0.099
225.400	87.943	0.099
225.500	70.378	0.099
225.600	92.973	0.099
225.700	108.243	0.099
225.800	90.887	0.099
225.900	76.317	0.099
226.000	59.579	0.099
226.100	80.159	0.099
226.200	84.967	0.099
226.300	83.413	0.099
226.400	90.601	0.099
226.500	99.410	0.099
226.600	91.544	0.099
226.700	96.541	0.099
226.800	76.252	0.099
226.900	85.084	0.099
227.000	108.163	0.099
227.100	93.560	0.099
227.200	92.700	0.099
227.300	82.856	0.099
227.400	96.904	0.099
227.500	76.686	0.099
227.600	77.182	0.099
227.700	82.270	0.099
227.800	94.360	0.099
227.900	82.436	0.099
228.000	78.531	0.099
228.100	101.861	0.099
228.200	84.878	0.099
228.300	89.376	0.099
228.400	70.696	0.099
228.500	72.841	0.099
228.600	94.796	0.099
228.700	89.092	0.099
228.800	93.351	0.099
228.900	75.631	0.099
229.000	101.663	0.099
229.100	82.569	0.099
229.200	91.117	0.099
229.300	82.579	0.099
229.400	84.969	0.099
229.500	99.304	0.099
229.600	70.880	0.099
229.700	73.628	0.099
229.800	90.685	0.099
229.900	67.992	0.099
230.000	74.191	0.099
230.100	79.024	0.099
230.200	92.102	0.099
230.300	94.288	0.099
230.400	91.685	0.099
230.500	92.822	0.099
230.600	94.129	0.099
230.700	91.518	0.099
230.800	106.155	0.099
230.900	82.560	0.099
231.000	80.615	0.099
231.100	73.268	0.099
231.200	88.742	0.099
231.300	83.621	0.099
231.400	91.836	0.099
231.500	79.308	0.099
231.600	95.901	0.099
231.700	69.162	0.099
231.800	78.795	0.099
231.900	85.629	0.099
232.000	79.049	0.099
232.100	102.229	0.099
232.200	82.614	0.099
232.300	83.869	0.099
232.400	83.716	0.099
232.500	75.702	0.099
232.600	92.989	0.099
232.700	84.023	0.099
232.800	80.792	0.099
232.900	88.203	0.099
233.000	72.364	0.099
233.100	63.830	0.099
233.200	83.698	0.099
233.300	87.750	0.099
233.400	72.277	0.099
233.500	81.847	0.099
233.600	96.549	0.099
233.700	84.954	0.099
233.800	92.022	0.099
233.900	92.877	0.099
234.000	83.264	0.099
234.100	85.707	0.099
234.200	103.865	0.099
234.300	80.512	0.099
234.400	83.655	0.099
234.500	85.638	0.099
234.600	69.034	0.099
234.700	90.511	0.099
234.800	108.650	0.099
234.900	85.104	0.099
235.000	83.476	0.099
235.100	84.640	0.099
235.200	75.880	0.099
235.300	65.416	0.099
235.400	87.085	0.099
235.500	89.325	0.099
235.600	89.009	0.099
235.700	54.402	0.099
235.800	85.649	0.099
235.900	86.300	0.099
236.000	86.276	0.099
236.100	88.819	0.100
236.200	91.778	0.099
236.300	82.626	0.099
236.400	69.311	0.099
236.500	79.707	0.099
236.600	60.669	0.099
236.700	92.013	0.099
236.800	80.883	0.099
236.900	98.959	0.099
237.000	83.970	0.099
237.100	86.795	0.099
237.200	70.254	0.099
237.300	93.231	0.099
237.400	89.491	0.099
237.500	92.258	0.099
237.600	77.336	0.099
237.700	70.222	0.099
237.800	82.022	0.099
237.900	75.717	0.099
238.000	99.399	0.099
238.100	87.006	0.099
238.200	84.427	0.099
238.300	90.417	0.099
238.400	76.138	0.099
238.500	88.623	0.099
238.600	94.043	0.099
238.700	119.826	0.099
238.800	108.920	0.099
238.900	90.033	0.099
239.000	87.092	0.099
239.100	82.414	0.099
239.200	83.622	0.099
239.300	82.595	0.099
239.400	82.309	0.099
239.500	94.124	0.099
239.600	83.390	0.099
239.700	87.917	0.099
239.800	92.498	0.099
239.900	71.844	0.099
240.000	94.906	0.099
240.100	89.360	0.099
240.200	84.441	0.099
240.300	79.023	0.099
240.400	80.957	0.099
240.500	63.783	0.099
240.600	84.731	0.099
240.700	73.124	0.099
240.800	57.706	0.099
240.900	45.669	0.099
241.000	50.216	0.099
241.100	50.382	0.099
241.200	46.724	0.100
241.300	31.568	0.099
241.400	31.767	0.099
241.500	21.871	0.099
241.600	22.864	0.099
241.700	-4.632	0.099
241.800	28.356	0.099
241.900	14.956	0.099
242.000	10.663	0.099
242.100	6.745	0.099
242.200	-3.064	0.099
242.300	-6.860	0.099
242.400	-18.475	0.099
242.500	-22.880	0.099
242.600	-10.421	0.099
242.700	-20.014	0.099
242.800	-9.488	0.099
242.900	12.520	0.099
243.000	7.199	0.099
243.100	-9.041	0.099
243.200	-36.969	0.099
243.300	-15.479	0.099
243.400	-15.812	0.099
243.500	-11.087	0.099
243.600	-14.147	0.099
243.700	-21.086	0.099
243.800	-32.322	0.099
243.900	-23.747	0.099
244.000	-29.942	0.099
244.100	-22.464	0.099
244.200	-15.102	0.099
244.300	-16.937	0.099
244.400	-26.500	0.099
244.500	-15.616	0.099
244.600	-29.238	0.100
244.700	-24.722	0.099
244.800	-29.026	0.099
244.900	-12.201	0.099
245.000	-12.285	0.099
245.100	-28.774	0.099
245.200	-22.612	0.099
245.300	-16.330	0.099
245.400	-24.783	0.099
245.500	-19.720	0.099
245.600	-32.310	0.099
245.700	-25.239	0.099
245.800	-26.593	0.099
245.900	-18.793	0.099
246.000	-17.838	0.099
246.100	-16.254	0.099
246.200	-20.284	0.099
246.300	-22.159	0.099
246.400	-22.352	0.099
246.500	-32.271	0.099
246.600	-21.009	0.099
246.700	-15.676	0.099
246.800	-36.641	0.099
246.900	-27.545	0.099
247.000	-41.662	0.099
247.100	-20.493	0.099
247.200	8.153	0.099
247.300	-13.005	0.099
247.400	-17.462	0.099
247.500	-4.364	0.099
247.600	-9.810	0.099
247.700	-19.448	0.099
247.800	-27.598	0.099
247.900	-24.791	0.099
248.000	-29.343	0.099
248.100	-18.340	0.099
248.200	-21.235	0.099
248.300	-14.301	0.099
248.400	-8.877	0.099
248.500	-19.529	0.099
248.600	-24.650	0.099
248.700	-12.838	0.099
248.800	-25.792	0.099
248.900	-24.071	0.099
249.000	-23.912	0.099
249.100	-29.303	0.099
249.200	-15.818	0.099
249.300	-17.570	0.099
249.400	-40.183	0.099
249.500	-15.834	0.099
249.600	-16.032	0.099
249.700	-27.237	0.099
249.800	-11.926	0.099
249.900	-26.361	0.099
250.000	-13.041	0.099
250.100	-0.299	0.099
250.200	-24.654	0.099
250.300	-10.282	0.099
250.400	-24.768	0.099
250.500	-24.627	0.099
250.600	-29.711	0.099
250.700	-23.042	0.099
250.800	-24.217	0.099
250.900	-29.090	0.099
251.000	-13.660	0.099
251.100	-20.291	0.099
251.200	-24.109	0.099
251.300	-22.910	0.099
251.400	-36.414	0.099
251.500	-27.722	0.099
251.600	-27.704	0.099
251.700	-26.009	0.099
251.800	-25.324	0.099
251.900	-34.596	0.099
252.000	-25.690	0.099
252.100	-18.434	0.099
252.200	-7.139	0.099
252.300	-20.424	0.099
252.400	-11.840	0.099
252.500	-26.159	0.099
252.600	-23.681	0.099
252.700	-26.840	0.099
252.800	-37.217	0.099
252.900	-34.323	0.099
253.000	-32.297	0.099
253.100	-6.301	0.099
253.200	-16.570	0.099
253.300	-39.056	0.099
253.400	-13.754	0.099
253.500	-29.028	0.099
253.600	-36.265	0.099
253.700	-14.835	0.099
253.800	-14.995	0.099
253.900	-46.511	0.099
254.000	-13.250	0.099
254.100	-25.546	0.099
254.200	-31.263	0.099
254.300	-23.233	0.099
254.400	-17.409	0.099
254.500	-19.111	0.099
254.600	-19.568	0.099
254.700	-28.620	0.099
254.800	-27.318	0.099
254.900	-27.534	0.099
255.000	-40.850	0.099
255.100	-23.351	0.099
255.200	-28.203	0.099
255.300	-38.090	0.099
255.400	-32.623	0.099
255.500	-31.507	0.099
255.600	-18.340	0.099
255.700	-31.512	0.099
255.800	-38.729	0.099
255.900	-25.707	0.099
256.000	-31.027	0.099
256.100	-25.416	0.099
256.200	-29.743	0.099
256.300	-30.021	0.099
256.400	-16.001	0.099
256.500	-44.260	0.099
256.600	-44.038	0.099
256.700	-25.305	0.099
256.800	-33.524	0.099
256.900	-37.761	0.099
257.000	-24.303	0.099
257.100	-28.108	0.099
257.200	-28.283	0.099
257.300	-31.864	0.099
257.400	-26.522	0.099
257.500	-15.206	0.099
257.600	-42.916	0.099
257.700	-6.615	0.099
257.800	-24.953	0.099
257.900	-31.829	0.099
258.000	-40.977	0.099
258.100	-29.609	0.099
258.200	-36.698	0.099
258.300	-48.835	0.099
258.400	-17.717	0.099
258.500	-23.081	0.099
258.600	-36.924	0.099
258.700	-27.979	0.099
258.800	-36.034	0.099
258.900	-28.103	0.099
259.000	-19.301	0.099
259.100	-19.700	0.099
259.200	-39.578	0.099
259.300	-15.593	0.099
259.400	-22.280	0.099
259.500	-45.426	0.099
259.600	-30.532	0.099
259.700	-38.700	0.099
259.800	-25.251	0.099
259.900	-39.053	0.099
260.000	-41.483	0.099
260.100	-27.628	0.099
260.200	-23.770	0.099
260.300	-26.922	0.099
260.400	-61.865	0.099
260.500	-20.777	0.099
260.600	-24.716	0.099
260.700	-37.555	0.099
260.800	-23.230	0.099
260.900	-36.911	0.099
261.000	-30.058	0.099
261.100	-29.126	0.099
261.200	-29.294	0.099
261.300	-41.450	0.099
261.400	-46.767	0.099
261.500	-20.691	0.099
261.600	-19.306	0.099
261.700	-28.981	0.099
261.800	-23.111	0.099
261.900	-46.082	0.099
262.000	-46.963	0.099
262.100	-49.626	0.099
262.200	-43.673	0.099
262.300	-42.300	0.099
262.400	-35.890	0.099
262.500	-45.948	0.099
262.600	-41.379	0.099
262.700	-28.258	0.099
262.800	-35.194	0.099
262.900	-21.635	0.099
263.000	-27.494	0.099
263.100	-50.166	0.099
263.200	-53.149	0.099
263.300	-22.452	0.099
263.400	-30.366	0.099
263.500	-26.427	0.099
263.600	-47.586	0.099
263.700	-42.983	0.099
263.800	-36.480	0.099
263.900	-39.977	0.099
264.000	-32.528	0.099
264.100	-33.842	0.099
264.200	-9.042	0.099
264.300	-32.439	0.099
264.400	-43.174	0.099
264.500	-46.498	0.099
264.600	-39.023	0.099
264.700	-44.516	0.099
264.800	-32.397	0.099
264.900	-33.800	0.099
265.000	-40.872	0.099
265.100	-53.610	0.099
265.200	-34.535	0.099
265.300	-49.625	0.099
265.400	-34.217	0.099
265.500	-40.121	0.099
265.600	-44.265	0.099
265.700	-45.266	0.099
265.800	-28.671	0.099
265.900	-46.106	0.099
266.000	-39.064	0.099
266.100	-46.149	0.099
266.200	-31.018	0.099
266.300	-27.193	0.099
266.400	-41.504	0.099
266.500	-47.810	0.099
266.600	-52.950	0.099
266.700	-35.049	0.099
266.800	-26.066	0.099
266.900	-57.699	0.099
267.000	-33.740	0.099
267.100	-26.491	0.099
267.200	-27.520	0.099
267.300	-38.150	0.099
267.400	-40.604	0.099
267.500	-35.412	0.099
267.600	-47.960	0.099
267.700	-41.387	0.099
267.800	-29.358	0.099
267.900	-38.920	0.099
268.000	-53.356	0.099
268.100	-25.536	0.099
268.200	-44.384	0.099
268.300	-30.982	0.099
268.400	-37.438	0.099
268.500	-34.403	0.099
268.600	-34.966	0.099
268.700	-33.809	0.099
268.800	-58.558	0.099
268.900	-44.073	0.099
269.000	-35.171	0.099
269.100	-41.804	0.099
269.200	-15.440	0.099
269.300	-21.323	0.099
269.400	-31.521	0.099
269.500	-55.797	0.099
269.600	-43.896	0.099
269.700	-40.546	0.099
269.800	-50.355	0.099
269.900	-33.892	0.099
270.000	-34.578	0.099
270.100	-33.325	0.099
270.200	-37.377	0.099
270.300	-31.008	0.099
270.400	-26.062	0.099
270.500	-48.090	0.099
270.600	-43.082	0.099
270.700	-34.620	0.099
270.800	-58.650	0.099
270.900	-61.625	0.099
271.000	-36.973	0.099
271.100	-41.605	0.099
271.200	-63.698	0.099
271.300	-32.224	0.099
271.400	-20.777	0.099
271.500	-34.529	0.099
271.600	-27.875	0.099
271.700	-47.583	0.099
271.800	-45.207	0.099
271.900	-36.842	0.099
272.000	-48.190	0.099
272.100	-36.348	0.099
272.200	-52.513	0.099
272.300	-65.436	0.099
272.400	-48.393	0.099
272.500	-37.979	0.099
272.600	-44.380	0.099
272.700	-28.466	0.099
272.800	-29.504	0.099
272.900	-39.551	0.099
273.000	-57.551	0.099
273.100	-23.928	0.099
273.200	-39.680	0.099
273.300	-30.252	0.099
273.400	-51.240	0.099
273.500	-57.576	0.099
273.600	-33.191	0.099
273.700	-42.837	0.099
273.800	-34.013	0.099
273.900	-45.444	0.099
274.000	-34.578	0.099
274.100	-55.564	0.099
274.200	-35.443	0.099
274.300	-39.891	0.099
274.400	-24.120	0.099
274.500	-43.931	0.099
274.600	-29.416	0.099
274.700	-41.478	0.099
274.800	-49.270	0.099
274.900	-55.898	0.099
275.000	-45.138	0.099
275.100	-32.977	0.099
275.200	-56.305	0.099
275.300	-27.892	0.099
275.400	-23.332	0.099
275.500	-46.517	0.099
275.600	-49.882	0.099
275.700	-28.776	0.099
275.800	-32.894	0.099
275.900	-41.514	0.099
276.000	-52.792	0.099
276.100	-43.910	0.099
276.200	-38.971	0.099
276.300	-45.577	0.099
276.400	-37.453	0.099
276.500	-24.846	0.099
276.600	-26.134	0.099
276.700	-40.375	0.099
276.800	-57.851	0.099
276.900	-44.234	0.099
277.000	-29.536	0.099
277.100	-35.981	0.099
277.200	-68.525	0.099
277.300	-27.312	0.099
277.400	-40.831	0.099
277.500	-52.742	0.099
277.600	-21.039	0.099
277.700	-31.606	0.099
277.800	-33.538	0.099
277.900	-37.305	0.099
278.000	-53.119	0.099
278.100	-41.627	0.099
278.200	-39.396	0.099
278.300	-39.590	0.099
278.400	-47.182	0.099
278.500	-39.485	0.099
278.600	-30.237	0.099
278.700	-51.553	0.099
278.800	-38.187	0.099
278.900	-30.638	0.099
279.000	-31.562	0.099
279.100	-49.088	0.099
279.200	-24.778	0.099
279.300	-24.023	0.099
279.400	-53.061	0.099
279.500	-22.619	0.099
279.600	-45.114	0.099
279.700	-19.929	0.099
279.800	-41.802	0.099
279.900	-33.281	0.099
280.000	-33.818	0.099
280.100	-30.418	0.099
280.200	-33.517	0.099
280.300	-37.078	0.099
280.400	-35.145	0.099
280.500	-55.087	0.099
280.600	-21.215	0.099
280.700	-27.522	0.099
280.800	-50.476	0.099
280.900	-26.794	0.099
281.000	-32.084	0.099
281.100	-37.666	0.099
281.200	-51.347	0.099
281.300	-29.165	0.099
281.400	-54.578	0.099
281.500	-50.605	0.099
281.600	-40.591	0.099
281.700	-19.005	0.099
281.800	-27.692	0.099
281.900	-39.720	0.099
282.000	-28.832	0.099
282.100	-63.217	0.099
282.200	-31.414	0.099
282.300	-39.133	0.099
282.400	-35.705	0.099
282.500	-46.090	0.099
282.600	-26.779	0.099
282.700	-30.369	0.099
282.800	-60.309	0.099
282.900	-56.506	0.099
283.000	-18.904	0.099
283.100	-36.540	0.099
283.200	-47.430	0.099
283.300	-60.269	0.099
283.400	-14.448	0.099
283.500	-28.298	0.099
283.600	-34.351	0.099
283.700	-30.667	0.099
283.800	-45.440	0.099
283.900	-37.957	0.099
284.000	-31.342	0.099
284.100	-34.725	0.099
284.200	-25.486	0.099
284.300	-31.572	0.099
284.400	-38.709	0.099
284.500	-55.086	0.099
284.600	-35.565	0.099
284.700	-30.613	0.099
284.800	-41.446	0.099
284.900	-48.433	0.099
285.000	-45.557	0.099
285.100	-19.788	0.100
285.200	-22.658	0.099
285.300	-48.539	0.099
285.400	-49.599	0.099
285.500	-40.516	0.099
285.600	-46.144	0.099
285.700	-24.537	0.099
285.800	-39.633	0.099
285.900	-43.910	0.099
286.000	-39.734	0.099
286.100	-42.440	0.099
286.200	-41.337	0.099
286.300	-38.580	0.099
286.400	-52.863	0.099
286.500	-18.161	0.099
286.600	-39.872	0.099
286.700	-50.427	0.099
286.800	-56.296	0.099
286.900	-26.222	0.099
287.000	-34.081	0.100
287.100	-42.489	0.099
287.200	-39.529	0.099
287.300	-31.881	0.099
287.400	-24.988	0.099
287.500	-32.416	0.099
287.600	-31.818	0.099
287.700	-40.930	0.099
287.800	-43.977	0.099
287.900	-32.067	0.099
288.000	-48.069	0.099
288.100	-44.402	0.099
288.200	-52.094	0.099
288.300	-48.323	0.099
288.400	-38.033	0.099
288.500	-29.658	0.099
288.600	-34.623	0.099
288.700	-51.852	0.099
288.800	-15.151	0.099
288.900	-33.279	0.099
289.000	-39.065	0.099
289.100	-32.458	0.099
289.200	-44.636	0.099
289.300	-37.772	0.099
289.400	-26.168	0.099
289.500	-57.304	0.099
289.600	-29.852	0.099
289.700	-26.108	0.099
289.800	-25.193	0.099
289.900	-33.371	0.099
290.000	-36.781	0.099
290.100	-24.678	0.100
290.200	-39.737	0.099
290.300	-42.256	0.099
290.400	-36.531	0.099
290.500	-44.194	0.099
290.600	-41.491	0.099
290.700	-39.704	0.099
290.800	-29.659	0.099
290.900	-23.280	0.099
291.000	-27.875	0.099
291.100	-57.593	0.099
291.200	-27.152	0.099
291.300	-35.390	0.099
291.400	-45.873	0.099
291.500	-20.551	0.099
291.600	-49.250	0.099
291.700	-28.673	0.099
291.800	-35.757	0.099
291.900	-38.284	0.099
292.000	-28.401	0.099
292.100	-43.105	0.099
292.200	-41.402	0.099
292.300	-19.407	0.099
292.400	-30.137	0.099
292.500	-24.577	0.099
292.600	-40.387	0.099
292.700	-25.700	0.099
292.800	-36.451	0.099
292.900	-23.435	0.099
293.000	-24.645	0.100
293.100	-30.523	0.099
293.200	-52.104	0.099
293.300	-41.469	0.099
293.400	-33.825	0.099
293.500	-44.211	0.099
293.600	-46.653	0.099
293.700	-28.540	0.099
293.800	-32.148	0.099
293.900	-52.689	0.099
294.000	-33.007	0.099
294.100	-24.569	0.099
294.200	-40.943	0.099
294.300	-22.447	0.099
294.400	-25.400	0.099
294.500	-39.005	0.100
294.600	-34.375	0.099
294.700	-41.408	0.099
294.800	-38.192	0.099
294.900	-23.749	0.099
295.000	-50.562	0.099
295.100	-21.182	0.099
295.200	-39.530	0.099
295.300	-31.263	0.099
295.400	-40.291	0.099
295.500	-44.123	0.099
295.600	-43.773	0.099
295.700	-36.174	0.099
295.800	-24.004	0.099
295.900	-34.688	0.099
296.000	-34.876	0.099
296.100	-30.487	0.099
296.200	-29.684	0.099
296.300	-33.522	0.099
296.400	-37.417	0.099
296.500	-33.293	0.099
296.600	-19.305	0.099
296.700	-36.217	0.099
296.800	-60.574	0.099
296.900	-35.563	0.099
297.000	-18.356	0.099
297.100	-34.027	0.099
297.200	-42.782	0.099
297.300	-36.222	0.099
297.400	-36.908	0.099
297.500	-26.460	0.099
297.600	-40.339	0.099
297.700	-36.424	0.099
297.800	-30.741	0.099
297.900	-43.101	0.099
298.000	-34.230	0.099
298.100	-32.368	0.099
298.200	-36.209	0.099
298.300	-27.303	0.099
298.400	-64.962	0.099
298.500	-31.356	0.099
298.600	-32.279	0.099
298.700	-39.549	0.099
298.800	-34.419	0.099
298.900	-25.971	0.099
299.000	-19.616	0.099
299.100	-17.809	0.099
299.200	-34.159	0.099
299.300	-45.537	0.099
299.400	-31.270	0.099
299.500	-58.346	0.099
299.600	-13.380	0.099
299.700	-33.453	0.099
299.800	-40.509	0.099
299.900	-38.136	0.099
300.000	-30.013	0.099
300.100	-33.336	0.099
300.200	-30.641	0.099
300.300	-28.554	0.099
300.400	-31.127	0.099
300.500	-35.171	0.099
300.600	-34.552	0.099
300.700	-44.351	0.099
300.800	-24.128	0.099
300.900	-23.980	0.099
301.000	-41.018	0.099
301.100	-23.177	0.099
301.200	-26.915	0.099
301.300	-43.528	0.099
301.400	-48.466	0.099
301.500	-50.266	0.099
301.600	-39.463	0.099
301.700	-19.033	0.099
301.800	-14.347	0.099
301.900	-22.928	0.099
302.000	-26.508	0.099
302.100	-56.149	0.099
302.200	-22.629	0.099
302.300	-27.765	0.099
302.400	-29.742	0.099
302.500	-33.436	0.099
302.600	-36.957	0.099
302.700	-38.729	0.099
302.800	-19.199	0.099
302.900	-24.920	0.099
303.000	-29.755	0.099
303.100	-43.456	0.099
303.200	-28.987	0.099
303.300	-14.592	0.099
303.400	-34.654	0.099
303.500	-53.815	0.099
303.600	-35.114	0.099
303.700	-18.943	0.099
303.800	-38.342	0.099
303.900	-22.455	0.099
304.000	-25.875	0.099
304.100	-31.284	0.099
304.200	-36.325	0.099
304.300	-23.100	0.099
304.400	-14.045	0.099
304.500	-25.455	0.099
304.600	-54.417	0.099
304.700	-35.023	0.099
304.800	-21.332	0.099
304.900	-28.834	0.099
305.000	-49.200	0.099
305.100	-35.573	0.099
305.200	-32.364	0.099
305.300	-28.940	0.099
305.400	-11.125	0.099
305.500	-22.239	0.099
305.600	-14.887	0.099
305.700	-37.309	0.099
305.800	-43.313	0.099
305.900	-38.083	0.099
306.000	-27.555	0.099
306.100	-28.306	0.099
306.200	-15.061	0.099
306.300	-30.815	0.099
306.400	-43.455	0.099
306.500	-20.116	0.099
306.600	-19.204	0.099
306.700	-49.933	0.099
306.800	-21.310	0.099
306.900	-41.376	0.099
307.000	-29.794	0.099
307.100	-34.878	0.099
307.200	-27.723	0.099
307.300	-24.046	0.099
307.400	-38.939	0.099
307.500	-21.910	0.099
307.600	-48.256	0.099
307.700	-33.551	0.099
307.800	-30.979	0.099
307.900	-55.300	0.099
308.000	-37.767	0.099
308.100	-33.363	0.099
308.200	-6.900	0.099
308.300	-21.471	0.099
308.400	-22.445	0.099
308.500	-32.537	0.099
308.600	-37.541	0.099
308.700	-40.585	0.099
308.800	-30.196	0.099
308.900	-44.199	0.099
309.000	-23.260	0.099
309.100	-35.934	0.099
309.200	-38.219	0.099
309.300	-24.965	0.099
309.400	-33.972	0.099
309.500	-24.798	0.099
309.600	-47.534	0.099
309.700	-35.028	0.099
309.800	-7.540	0.099
309.900	-35.075	0.099
310.000	-29.857	0.099
310.100	-10.530	0.099
310.200	-36.913	0.099
310.300	-17.008	0.099
310.400	-19.689	0.099
310.500	-55.275	0.099
310.600	-31.910	0.099
310.700	-38.028	0.099
310.800	-12.428	0.099
310.900	-38.517	0.099
311.000	-29.042	0.099
311.100	-32.074	0.099
311.200	-15.635	0.099
311.300	-29.982	0.099
311.400	-26.941	0.099
311.500	-26.975	0.099
311.600	-22.179	0.099
311.700	-28.374	0.099
311.800	-43.202	0.099
311.900	-33.093	0.099
312.000	-29.950	0.099
312.100	-9.505	0.099
312.200	-12.079	0.099
312.300	-16.546	0.099
312.400	-43.722	0.099
312.500	-18.802	0.099
312.600	-19.679	0.099
312.700	-30.443	0.099
312.800	-49.680	0.099
312.900	-29.591	0.099
313.000	-26.553	0.099
313.100	-31.696	0.099
313.200	-33.440	0.099
313.300	-15.259	0.099
313.400	-25.079	0.099
313.500	-17.721	0.099
313.600	-26.073	0.099
313.700	-29.842	0.099
313.800	-40.590	0.099
313.900	-40.024	0.099
314.000	-56.260	0.099
314.100	-7.888	0.099
314.200	-32.275	0.099
314.300	-29.517	0.099
314.400	-16.516	0.099
314.500	-30.413	0.099
314.600	-31.464	0.099
314.700	-29.679	0.099
314.800	-39.369	0.099
314.900	-52.252	0.099
315.000	-25.908	0.099
315.100	-28.041	0.099
315.200	-16.313	0.099
315.300	-16.598	0.099
315.400	-22.451	0.099
315.500	-19.915	0.099
315.600	-19.443	0.099
315.700	-32.849	0.099
315.800	-21.972	0.099
315.900	-42.756	0.099
316.000	-14.955	0.099
316.100	-27.381	0.099
316.200	-34.365	0.099
316.300	-43.747	0.099
316.400	-29.251	0.099
316.500	-28.543	0.099
316.600	-15.593	0.099
316.700	-29.995	0.099
316.800	-31.814	0.099
316.900	-22.003	0.099
317.000	-41.341	0.099
317.100	-7.363	0.099
317.200	-29.779	0.099
317.300	-26.006	0.099
317.400	-34.097	0.099
317.500	-26.103	0.099
317.600	-11.009	0.099
317.700	-16.296	0.099
317.800	-22.601	0.099
317.900	-22.067	0.099
318.000	-55.113	0.099
318.100	-14.779	0.099
318.200	-32.665	0.099
318.300	-31.809	0.099
318.400	-25.184	0.099
318.500	-30.111	0.099
318.600	-18.257	0.099
318.700	-32.249	0.099
318.800	-40.435	0.099
318.900	-21.759	0.099
319.000	-19.365	0.099
319.100	-29.161	0.099
319.200	-23.149	0.099
319.300	-42.851	0.099
319.400	-28.151	0.099
319.500	-16.061	0.099
319.600	-25.906	0.099
319.700	-27.869	0.099
319.800	-37.771	0.099
319.900	-32.756	0.099
320.000	-28.511	0.099
320.100	-29.587	0.099
320.200	-15.893	0.099
320.300	-34.464	0.099
320.400	-30.136	0.099
320.500	-33.360	0.099
320.600	-28.116	0.099
320.700	-44.370	0.099
320.800	-24.900	0.099
320.900	-34.794	0.099
321.000	-21.801	0.099
321.100	-21.852	0.099
321.200	-37.427	0.099
321.300	-32.885	0.099
321.400	-35.424	0.099
321.500	-26.772	0.099
321.600	-37.188	0.099
321.700	-34.412	0.099
321.800	-27.238	0.099
321.900	-16.230	0.099
322.000	-43.376	0.099
322.100	-22.089	0.099
322.200	-9.856	0.099
322.300	-44.075	0.099
322.400	-9.913	0.099
322.500	-16.813	0.099
322.600	-32.757	0.099
322.700	-38.794	0.099
322.800	-22.404	0.099
322.900	-10.016	0.099
323.000	-27.565	0.099
323.100	-21.347	0.099
323.200	-19.408	0.099
323.300	-33.832	0.099
323.400	-50.603	0.099
323.500	-21.988	0.099
323.600	-23.500	0.099
323.700	-19.671	0.099
323.800	-26.081	0.099
323.900	-30.447	0.099
324.000	-39.081	0.099
324.100	-29.212	0.099
324.200	-33.040	0.099
324.300	-23.463	0.099
324.400	-48.333	0.099
324.500	-18.341	0.099
324.600	-15.710	0.099
324.700	-21.004	0.099
324.800	-30.588	0.099
324.900	-59.124	0.099
325.000	-6.338	0.099
325.100	-10.432	0.099
325.200	-28.922	0.099
325.300	-7.506	0.099
325.400	-31.740	0.099
325.500	-20.003	0.099
325.600	-24.145	0.099
325.700	-21.713	0.099
325.800	-19.346	0.099
325.900	-23.233	0.099
326.000	-27.143	0.099
326.100	-28.937	0.099
326.200	-19.637	0.099
326.300	-30.579	0.099
326.400	-24.152	0.099
326.500	-34.198	0.099
326.600	-16.434	0.099
326.700	-32.119	0.099
326.800	-28.043	0.099
326.900	-24.197	0.099
327.000	-20.628	0.099
327.100	-25.661	0.099
327.200	-35.931	0.099
327.300	-26.132	0.099
327.400	-30.512	0.099
327.500	-32.012	0.099
327.600	-24.324	0.099
327.700	-23.647	0.099
327.800	-15.774	0.099
327.900	-10.757	0.099
328.000	-22.469	0.099
328.100	-26.991	0.099
328.200	-17.277	0.099
328.300	-26.560	0.099
328.400	-42.353	0.099
328.500	-38.831	0.099
328.600	-22.323	0.099
328.700	-23.608	0.099
328.800	-23.924	0.099
328.900	-7.796	0.099
329.000	-32.147	0.099
329.100	-22.423	0.099
329.200	-24.447	0.099
329.300	-19.115	0.099
329.400	-25.181	0.099
329.500	-36.254	0.099
329.600	-29.608	0.099
329.700	-25.713	0.099
329.800	-25.817	0.099
329.900	-35.755	0.099
330.000	-24.471	0.099
330.100	-29.263	0.099
330.200	-32.059	0.099
330.300	-32.711	0.099
330.400	-8.172	0.099
330.500	-30.004	0.099
330.600	-5.957	0.099
330.700	-9.447	0.099
330.800	-7.962	0.099
330.900	11.752	0.099
331.000	9.290	0.099
331.100	26.049	0.099
331.200	28.252	0.099
331.300	13.223	0.099
331.400	33.684	0.099
331.500	45.478	0.099
331.600	34.574	0.099
331.700	17.320	0.099
331.800	28.003	0.099
331.900	63.782	0.099
332.000	46.910	0.099
332.100	42.060	0.099
332.200	40.187	0.099
332.300	45.605	0.099
332.400	38.716	0.099
332.500	35.752	0.099
332.600	46.569	0.099
332.700	41.376	0.099
332.800	50.434	0.099
332.900	32.856	0.099
333.000	57.714	0.099
333.100	38.493	0.099
333.200	49.812	0.099
333.300	41.939	0.099
333.400	44.041	0.099
333.500	33.313	0.099
333.600	29.095	0.099
333.700	45.371	0.099
333.800	49.951	0.099
333.900	53.443	0.099
334.000	37.246	0.099
334.100	14.510	0.099
334.200	38.334	0.099
334.300	54.071	0.099
334.400	29.741	0.099
334.500	18.868	0.099
334.600	-1.066	0.099
334.700	38.960	0.099
334.800	26.862	0.099
334.900	31.744	0.099
335.000	37.707	0.099
335.100	35.199	0.099
335.200	23.500	0.099
335.300	30.570	0.099
335.400	22.457	0.099
335.500	34.485	0.099
335.600	35.681	0.099
335.700	20.310	0.099
335.800	25.977	0.099
335.900	13.323	0.099
336.000	26.044	0.099
336.100	34.517	0.099
336.200	10.005	0.099
336.300	26.387	0.099
336.400	9.545	0.099
336.500	21.838	0.099
336.600	47.195	0.099
336.700	55.980	0.099
336.800	27.576	0.099
336.900	26.769	0.099
337.000	29.691	0.099
337.100	43.999	0.099
337.200	43.217	0.099
337.300	30.965	0.099
337.400	47.032	0.099
337.500	41.636	0.099
337.600	30.171	0.099
337.700	54.711	0.099
337.800	53.398	0.099
337.900	43.832	0.099
338.000	38.923	0.099
338.100	63.788	0.099
338.200	69.156	0.099
338.300	51.286	0.099
338.400	51.775	0.099
338.500	53.854	0.099
338.600	44.849	0.099
338.700	70.695	0.099
338.800	70.492	0.099
338.900	50.970	0.099
339.000	51.769	0.099
339.100	57.363	0.099
339.200	46.601	0.099
339.300	54.579	0.099
339.400	69.696	0.099
339.500	70.925	0.099
339.600	77.822	0.099
339.700	67.449	0.099
339.800	54.625	0.099
339.900	70.317	0.099
340.000	84.533	0.099
340.100	70.102	0.099
340.200	33.227	0.099
340.300	61.267	0.099
340.400	93.268	0.099
340.500	77.916	0.099
340.600	75.434	0.099
340.700	84.811	0.099
340.800	59.268	0.099
340.900	77.110	0.099
341.000	73.895	0.099
341.100	76.889	0.099
341.200	61.254	0.099
341.300	77.992	0.099
341.400	91.025	0.099
341.500	72.395	0.099
341.600	64.877	0.099
341.700	88.142	0.099
341.800	109.799	0.099
341.900	94.036	0.099
342.000	96.789	0.099
342.100	92.271	0.099
342.200	87.115	0.099
342.300	78.805	0.099
342.400	72.930	0.099
342.500	106.211	0.099
342.600	81.717	0.099
342.700	108.019	0.099
342.800	117.021	0.099
342.900	118.370	0.099
343.000	93.087	0.099
343.100	101.528	0.099
343.200	104.644	0.099
343.300	116.067	0.099
343.400	85.983	0.099
343.500	118.208	0.099
343.600	101.098	0.099
343.700	92.772	0.099
343.800	87.554	0.099
343.900	103.065	0.099
344.000	114.509	0.099
344.100	114.082	0.099
344.200	92.303	0.099
344.300	102.173	0.099
344.400	110.013	0.099
344.500	111.253	0.099
344.600	116.160	0.099
344.700	108.819	0.099
344.800	116.390	0.099
344.900	116.272	0.099
345.000	108.288	0.099
345.100	118.906	0.099
345.200	104.350	0.099
345.300	111.920	0.099
345.400	116.897	0.099
345.500	103.338	0.099
345.600	136.918	0.099
345.700	98.206	0.099
345.800	93.283	0.099
345.900	103.663	0.099
346.000	115.306	0.099
346.100	112.338	0.099
346.200	108.804	0.099
346.300	105.781	0.099
346.400	105.488	0.099
346.500	130.521	0.099
346.600	131.078	0.099
346.700	106.246	0.099
346.800	116.952	0.099
346.900	106.928	0.099
347.000	117.587	0.099
347.100	117.898	0.099
347.200	101.545	0.099
347.300	122.913	0.099
347.400	104.899	0.099
347.500	107.622	0.099
347.600	95.872	0.099
347.700	94.727	0.099
347.800	122.465	0.099
347.900	124.545	0.099
348.000	125.698	0.099
348.100	100.607	0.099
348.200	122.445	0.099
348.300	109.569	0.099
348.400	100.908	0.099
348.500	106.158	0.099
348.600	89.103	0.099
348.700	113.782	0.099
348.800	120.201	0.099
348.900	106.024	0.099
349.000	110.954	0.099
349.100	101.633	0.099
349.200	109.834	0.099
349.300	102.801	0.099
349.400	107.874	0.099
349.500	102.553	0.099
349.600	105.867	0.099
349.700	96.733	0.099
349.800	97.359	0.099
349.900	99.778	0.099
350.000	91.537	0.099
350.100	99.346	0.099
350.200	100.071	0.099
350.300	114.346	0.099
350.400	106.489	0.099
350.500	107.788	0.099
350.600	109.735	0.099
350.700	73.327	0.099
350.800	98.283	0.099
350.900	97.681	0.099
351.000	106.157	0.099
351.100	113.947	0.099
351.200	114.161	0.099
351.300	103.191	0.099
351.400	76.404	0.099
351.500	106.538	0.099
351.600	109.494	0.099
351.700	89.045	0.099
351.800	113.526	0.099
351.900	120.185	0.099
352.000	82.075	0.099
352.100	98.225	0.099
352.200	103.418	0.099
352.300	90.704	0.099
352.400	115.880	0.099
352.500	96.826	0.099
352.600	106.934	0.099
352.700	93.591	0.099
352.800	81.826	0.099
352.900	76.621	0.099
353.000	94.816	0.099
353.100	93.435	0.099
353.200	102.891	0.099
353.300	116.398	0.099
353.400	120.912	0.099
353.500	73.542	0.099
353.600	94.601	0.099
353.700	99.758	0.099
353.800	109.257	0.099
353.900	96.834	0.099
354.000	99.547	0.099
354.100	92.852	0.099
354.200	105.689	0.099
354.300	86.235	0.099
354.400	94.847	0.099
354.500	97.389	0.099
354.600	94.186	0.099
354.700	100.944	0.099
354.800	107.937	0.099
354.900	84.235	0.099
355.000	91.155	0.099
355.100	122.575	0.099
355.200	100.886	0.099
355.300	100.477	0.099
355.400	105.742	0.099
355.500	96.559	0.099
355.600	103.824	0.099
355.700	100.970	0.099
355.800	100.951	0.099
355.900	111.480	0.099
356.000	93.426	0.099
356.100	101.895	0.099
356.200	113.254	0.099
356.300	100.967	0.099
356.400	100.957	0.099
356.500	86.773	0.099
356.600	115.458	0.099
356.700	91.473	0.099
356.800	104.851	0.099
356.900	103.098	0.099
357.000	92.855	0.099
357.100	117.908	0.099
357.200	105.610	0.099
357.300	101.588	0.099
357.400	93.186	0.099
357.500	91.053	0.099
357.600	89.408	0.099
357.700	99.103	0.099
357.800	98.745	0.099
357.900	98.298	0.099
358.000	85.024	0.099
358.100	105.203	0.099
358.200	77.064	0.099
358.300	127.636	0.099
358.400	101.127	0.099
358.500	102.207	0.099
358.600	112.506	0.099
358.700	104.108	0.099
358.800	91.461	0.099
358.900	103.715	0.099
359.000	86.110	0.099
359.100	66.554	0.099
359.200	114.932	0.099
359.300	93.548	0.099
359.400	112.007	0.099
359.500	86.647	0.099
359.600	89.912	0.099
359.700	84.636	0.099
359.800	101.628	0.099
359.900	104.276	0.099
360.000	99.209	0.099
360.100	104.663	0.099
360.200	95.445	0.099
360.300	90.983	0.099
360.400	97.986	0.099
360.500	87.445	0.099
360.600	96.758	0.099
360.700	110.362	0.099
360.800	111.673	0.099
360.900	74.276	0.099
361.000	88.920	0.099
361.100	111.099	0.099
361.200	99.738	0.099
361.300	100.094	0.099
361.400	103.234	0.099
361.500	98.201	0.099
361.600	107.414	0.099
361.700	95.220	0.099
361.800	91.737	0.099
361.900	73.932	0.099
362.000	103.992	0.099
362.100	95.055	0.099
362.200	104.499	0.099
362.300	103.180	0.099
362.400	110.520	0.099
362.500	86.683	0.099
362.600	82.982	0.099
362.700	110.002	0.099
362.800	89.798	0.099
362.900	109.122	0.099
363.000	99.264	0.099
363.100	108.092	0.099
363.200	75.354	0.099
363.300	89.703	0.099
363.400	100.907	0.099
363.500	116.601	0.099
363.600	86.957	0.099
363.700	114.835	0.099
363.800	84.837	0.099
363.900	100.495	0.099
364.000	98.572	0.099
364.100	103.149	0.099
364.200	85.568	0.099
364.300	89.561	0.099
364.400	86.229	0.099
364.500	99.426	0.099
364.600	91.574	0.099
364.700	99.970	0.099
364.800	68.953	0.099
364.900	92.805	0.099
365.000	103.655	0.099
365.100	98.695	0.099
365.200	95.431	0.099
365.300	92.573	0.099
365.400	90.767	0.099
365.500	93.192	0.099
365.600	92.612	0.099
365.700	88.425	0.099
365.800	83.045	0.099
365.900	101.216	0.099
366.000	97.482	0.099
366.100	96.902	0.099
366.200	99.491	0.099
366.300	100.845	0.099
366.400	93.139	0.099
366.500	78.725	0.099
366.600	85.460	0.099
366.700	85.833	0.099
366.800	117.800	0.099
366.900	80.533	0.099
367.000	100.087	0.099
367.100	101.314	0.099
367.200	100.132	0.099
367.300	90.342	0.099
367.400	87.043	0.099
367.500	107.996	0.099
367.600	94.401	0.099
367.700	94.694	0.099
367.800	88.285	0.099
367.900	96.905	0.099
368.000	97.658	0.099
368.100	106.999	0.099
368.200	80.929	0.099
368.300	108.145	0.099
368.400	81.912	0.099
368.500	96.493	0.099
368.600	82.926	0.099
368.700	93.633	0.099
368.800	97.254	0.099
368.900	100.511	0.099
369.000	86.501	0.099
369.100	97.248	0.099
369.200	97.841	0.099
369.300	77.629	0.099
369.400	106.610	0.099
369.500	84.346	0.099
369.600	100.757	0.099
369.700	78.982	0.099
369.800	89.128	0.099
369.900	98.577	0.099
370.000	98.575	0.099
370.100	91.647	0.099
370.200	75.354	0.099
370.300	81.272	0.099
370.400	114.788	0.099
370.500	109.237	0.099
370.600	100.376	0.099
370.700	92.864	0.099
370.800	70.815	0.099
370.900	91.872	0.099
371.000	86.874	0.099
371.100	104.645	0.099
371.200	88.049	0.099
371.300	107.069	0.099
371.400	81.747	0.099
371.500	93.039	0.099
371.600	92.743	0.099
371.700	66.424	0.099
371.800	95.976	0.099
371.900	94.305	0.099
372.000	78.685	0.099
372.100	89.529	0.099
372.200	97.985	0.099
372.300	83.303	0.099
372.400	83.962	0.099
372.500	96.842	0.099
372.600	85.373	0.099
372.700	90.179	0.099
372.800	84.493	0.099
372.900	89.824	0.099
373.000	114.330	0.099
373.100	114.015	0.099
373.200	91.903	0.099
373.300	106.088	0.099
373.400	77.884	0.099
373.500	89.988	0.099
373.600	92.556	0.099
373.700	98.637	0.099
373.800	93.273	0.099
373.900	94.528	0.099
374.000	99.144	0.099
374.100	82.011	0.099
374.200	101.379	0.099
374.300	88.251	0.099
374.400	86.794	0.099
374.500	79.234	0.099
374.600	105.990	0.099
374.700	70.319	0.099
374.800	110.517	0.099
374.900	89.070	0.099
375.000	102.544	0.099
375.100	90.633	0.099
375.200	92.676	0.099
375.300	91.181	0.099
375.400	75.738	0.099
375.500	96.115	0.099
375.600	91.182	0.099
375.700	71.917	0.099
375.800	110.979	0.099
375.900	106.002	0.099
376.000	88.644	0.099
376.100	72.257	0.099
376.200	73.954	0.099
376.300	87.786	0.099
376.400	97.171	0.099
376.500	89.840	0.099
376.600	99.124	0.099
376.700	99.724	0.099
376.800	87.900	0.099
376.900	93.440	0.099
377.000	93.249	0.099
377.100	89.212	0.099
377.200	87.113	0.099
377.300	108.311	0.099
377.400	68.355	0.099
377.500	116.099	0.099
377.600	95.358	0.099
377.700	94.441	0.099
377.800	73.958	0.099
377.900	97.108	0.099
378.000	91.021	0.099
378.100	92.566	0.099
378.200	92.970	0.099
378.300	91.611	0.099
378.400	85.399	0.099
378.500	90.595	0.099
378.600	97.971	0.099
378.700	84.205	0.099
378.800	101.120	0.099
378.900	92.292	0.099
379.000	79.011	0.099
379.100	81.493	0.099
379.200	122.837	0.099
379.300	98.764	0.099
379.400	84.137	0.099
379.500	97.914	0.099
379.600	100.125	0.099
379.700	90.565	0.099
379.800	80.801	0.099
379.900	97.038	0.099
380.000	90.705	0.099
380.100	81.548	0.099
380.200	96.356	0.099
380.300	102.873	0.099
380.400	108.747	0.099
380.500	87.375	0.099
380.600	90.490	0.099
380.700	88.597	0.099
380.800	85.975	0.099
380.900	110.193	0.099
381.000	96.343	0.099
381.100	96.571	0.099
381.200	82.561	0.099
381.300	83.438	0.099
381.400	118.877	0.099
381.500	89.471	0.099
381.600	78.330	0.099
381.700	102.597	0.099
381.800	77.393	0.099
381.900	109.743	0.099
382.000	79.197	0.099
382.100	82.989	0.099
382.200	93.231	0.099
382.300	96.833	0.099
382.400	86.451	0.099
382.500	90.741	0.099
382.600	99.421	0.099
382.700	94.549	0.099
382.800	88.671	0.099
382.900	97.625	0.099
383.000	96.634	0.099
383.100	63.464	0.099
383.200	76.562	0.099
383.300	96.370	0.099
383.400	74.947	0.099
383.500	89.287	0.099
383.600	107.109	0.099
383.700	103.201	0.099
383.800	99.849	0.099
383.900	94.179	0.099
384.000	87.492	0.099
384.100	96.099	0.099
384.200	88.940	0.099
384.300	80.225	0.099
384.400	99.027	0.099
384.500	84.424	0.099
384.600	69.830	0.099
384.700	80.136	0.099
384.800	96.842	0.099
384.900	100.324	0.099
385.000	88.049	0.099
385.100	95.684	0.099
385.200	109.414	0.099
385.300	102.664	0.099
385.400	86.680	0.099
385.500	82.739	0.099
385.600	90.403	0.099
385.700	92.633	0.099
385.800	96.226	0.099
385.900	97.605	0.099
386.000	63.871	0.099
386.100	96.412	0.099
386.200	89.255	0.099
386.300	86.967	0.099
386.400	84.513	0.099
386.500	98.771	0.099
386.600	92.381	0.099
386.700	77.874	0.099
386.800	103.232	0.099
386.900	81.384	0.099
387.000	107.643	0.099
387.100	106.437	0.100
387.200	72.163	0.099
387.300	93.738	0.099
387.400	84.249	0.099
387.500	90.560	0.099
387.600	87.404	0.100
387.700	102.780	0.099
387.800	89.787	0.099
387.900	88.296	0.099
388.000	84.262	0.099
388.100	88.532	0.099
388.200	92.305	0.100
388.300	88.194	0.099
388.400	77.849	0.100
388.500	88.822	0.100
388.600	119.121	0.100
388.700	97.162	0.100
388.800	83.329	0.100
388.900	93.440	0.100
389.000	88.324	0.100
389.100	95.367	0.100
389.200	91.145	0.100
389.300	93.438	0.100
389.400	84.977	0.100
389.500	82.138	0.100
389.600	96.499	0.100
389.700	97.946	0.100
389.800	87.874	0.100
389.900	77.739	0.100
390.000	85.939	0.100
390.100	102.489	0.100
390.200	88.448	0.100
390.300	95.764	0.100
390.400	96.927	0.100
390.500	90.709	0.100
390.600	68.351	0.100
390.700	62.577	0.100
390.800	44.315	0.100
390.900	40.680	0.100
391.000	40.565	0.100
391.100	42.537	0.100
391.200	18.987	0.100
391.300	27.897	0.100
391.400	14.003	0.100
391.500	13.574	0.100
391.600	-9.051	0.100
391.700	7.747	0.100
391.800	-0.697	0.100
391.900	14.094	0.100
392.000	-10.754	0.100
392.100	-9.045	0.100
392.200	-6.184	0.100
392.300	-20.424	0.100
392.400	-23.409	0.100
392.500	-24.624	0.100
392.600	-17.989	0.100
392.700	-28.158	0.100
392.800	1.059	0.100
392.900	-15.230	0.100
393.000	-23.210	0.100
393.100	-27.626	0.100
393.200	-8.606	0.100
393.300	-20.855	0.100
393.400	-36.070	0.100
393.500	-39.330	0.100
393.600	-6.761	0.100
393.700	-12.245	0.100
393.800	-32.931	0.100
393.900	-35.352	0.100
394.000	-16.785	0.100
394.100	-49.129	0.100
394.200	-17.964	0.100
394.300	-19.849	0.100
394.400	-26.597	0.100
394.500	-32.871	0.100
394.600	-25.703	0.100
394.700	-49.160	0.100
394.800	-35.428	0.100
394.900	-32.462	0.100
395.000	-51.178	0.100
395.100	-14.275	0.100
395.200	-32.712	0.100
395.300	-22.401	0.100
395.400	-28.992	0.100
395.500	-49.158	0.100
395.600	-38.466	0.100
395.700	-29.471	0.100
395.800	-36.000	0.100
395.900	-19.225	0.100
396.000	-19.802	0.100
396.100	-41.208	0.100
396.200	-40.645	0.100
396.300	-32.962	0.100
396.400	-26.595	0.100
396.500	-37.828	0.100
396.600	-20.624	0.100
396.700	-30.760	0.100
396.800	-34.938	0.100
396.900	-39.975	0.100
397.000	-36.985	0.100
397.100	-29.158	0.100
397.200	-30.919	0.100
397.300	-18.040	0.100
397.400	-25.263	0.100
397.500	-18.390	0.100
397.600	-24.417	0.100
397.700	-27.444	0.100
397.800	-20.862	0.100
397.900	-32.548	0.100
398.000	-29.143	0.100
398.100	-48.766	0.100
398.200	-33.719	0.100
398.300	-34.986	0.100
398.400	-9.983	0.100
398.500	-20.852	0.100
398.600	-24.055	0.100
398.700	-32.443	0.100
398.800	-54.798	0.100
398.900	-19.141	0.100
399.000	-24.234	0.100
399.100	-19.279	0.100
399.200	-25.846	0.100
399.300	-33.567	0.100
399.400	-26.999	0.100
399.500	-42.123	0.100
399.600	-20.874	0.100
399.700	-40.231	0.100
399.800	-20.183	0.100
399.900	-22.068	0.100
400.000	-20.515	0.100
400.100	-34.136	0.100
400.200	-33.454	0.100
400.300	-24.436	0.100
400.400	-46.464	0.100
400.500	-19.349	0.100
400.600	-11.552	0.100
400.700	-18.051	0.100
400.800	-28.163	0.100
400.900	-27.781	0.100
401.000	-39.074	0.100
401.100	-33.211	0.100
401.200	-46.661	0.100
401.300	-26.877	0.100
401.400	-40.085	0.100
401.500	-37.514	0.100
401.600	-25.291	0.100
401.700	-16.222	0.100
401.800	-37.800	0.100
401.900	-21.747	0.100
402.000	-43.703	0.100
402.100	-23.344	0.100
402.200	-35.627	0.100
402.300	-52.462	0.100
402.400	-51.049	0.100
402.500	-22.146	0.100
402.600	-34.902	0.100
402.700	-15.513	0.100
402.800	-39.050	0.100
402.900	-55.747	0.100
403.000	-41.571	0.100
403.100	-18.809	0.100
403.200	-18.847	0.100
403.300	-46.049	0.100
403.400	-36.387	0.100
403.500	-30.663	0.100
403.600	-30.123	0.100
403.700	-26.388	0.100
403.800	-12.004	0.100
403.900	-57.928	0.100
404.000	-35.664	0.100
404.100	-20.303	0.100
404.200	-54.796	0.100
404.300	-27.568	0.100
404.400	-43.985	0.100
404.500	-40.340	0.100
404.600	-25.480	0.100
404.700	-33.704	0.100
404.800	-40.463	0.100
404.900	-32.017	0.100
405.000	-27.310	0.100
405.100	-19.624	0.100
405.200	-41.253	0.100
405.300	-38.623	0.100
405.400	-20.814	0.100
405.500	-19.707	0.100
405.600	-40.149	0.100
405.700	-20.979	0.100
405.800	-37.178	0.100
405.900	-34.479	0.100
406.000	-44.722	0.100
406.100	-59.281	0.100
406.200	-36.882	0.100
406.300	-28.554	0.100
406.400	-41.133	0.100
406.500	-27.281	0.100
406.600	-26.653	0.100
406.700	-42.468	0.100
406.800	-52.298	0.100
406.900	-51.392	0.100
407.000	-3.016	0.100
407.100	-37.891	0.100
407.200	-27.363	0.100
407.300	-45.734	0.100
407.400	-41.892	0.100
407.500	-24.540	0.100
407.600	-46.350	0.100
407.700	-22.174	0.100
407.800	-46.803	0.100
407.900	-52.990	0.100
408.000	-60.387	0.100
408.100	-34.326	0.100
408.200	-38.407	0.100
408.300	-37.314	0.100
408.400	-39.736	0.100
408.500	-29.304	0.100
408.600	-34.336	0.100
408.700	-74.328	0.100
408.800	-51.581	0.100
408.900	-47.148	0.100
409.000	-51.300	0.100
409.100	-38.781	0.100
409.200	-45.129	0.100
409.300	-40.755	0.100
409.400	-43.198	0.099
409.500	-69.017	0.099
409.600	-51.810	0.099
409.700	-32.972	0.099
409.800	-33.590	0.099
409.900	-34.922	0.099
410.000	-37.090	0.099
410.100	-24.241	0.099
410.200	-41.480	0.099
410.300	-46.389	0.099
410.400	-44.187	0.099
410.500	-37.078	0.099
410.600	-44.485	0.099
410.700	-33.514	0.099
410.800	-25.510	0.099
410.900	-45.193	0.099
411.000	-43.356	0.099
411.100	-47.949	0.099
411.200	-37.756	0.099
411.300	-31.661	0.099
411.400	-55.661	0.099
411.500	-41.040	0.099
411.600	-39.863	0.099
411.700	-33.260	0.099
411.800	-47.024	0.099
411.900	-39.821	0.099
412.000	-45.031	0.099
412.100	-54.189	0.099
412.200	-56.174	0.099
412.300	-53.872	0.099
412.400	-27.838	0.099
412.500	-46.558	0.099
412.600	-43.062	0.099
412.700	-46.081	0.099
412.800	-36.837	0.099
412.900	-53.845	0.099
413.000	-41.967	0.099
413.100	-68.551	0.099
413.200	-42.176	0.099
413.300	-44.736	0.099
413.400	-57.110	0.099
413.500	-38.041	0.099
413.600	-37.551	0.099
413.700	-53.698	0.099
413.800	-55.605	0.099
413.900	-49.547	0.099
414.000	-54.728	0.099
414.100	-37.246	0.099
414.200	-44.875	0.099
414.300	-34.978	0.099
414.400	-50.055	0.099
414.500	-35.400	0.099
414.600	-26.570	0.099
414.700	-47.320	0.099
414.800	-17.976	0.099
414.900	-57.967	0.099
415.000	-36.851	0.099
415.100	-70.997	0.099
415.200	-35.578	0.099
415.300	-39.704	0.099
415.400	-45.355	0.099
415.500	-49.053	0.099
415.600	-43.331	0.099
415.700	-45.083	0.099
415.800	-46.230	0.099
415.900	-56.868	0.099
416.000	-45.021	0.099
416.100	-46.952	0.099
416.200	-40.548	0.099
416.300	-42.009	0.099
416.400	-53.733	0.099
416.500	-33.381	0.099
416.600	-43.580	0.099
416.700	-42.235	0.099
416.800	-48.395	0.099
416.900	-58.372	0.099
417.000	-54.231	0.099
417.100	-34.810	0.099
417.200	-50.240	0.099
417.300	-41.538	0.099
417.400	-52.997	0.099
417.500	-52.484	0.099
417.600	-43.394	0.099
417.700	-40.084	0.099
417.800	-45.056	0.099
417.900	-62.638	0.099
418.000	-42.752	0.099
418.100	-58.823	0.099
418.200	-38.352	0.099
418.300	-42.813	0.099
418.400	-60.950	0.099
418.500	-60.284	0.099
418.600	-44.517	0.099
418.700	-50.640	0.099
418.800	-43.368	0.099
418.900	-42.153	0.099
419.000	-53.253	0.099
419.100	-33.521	0.099
419.200	-59.865	0.099
419.300	-35.109	0.099
419.400	-43.941	0.099
419.500	-47.992	0.099
419.600	-31.352	0.099
419.700	-59.021	0.099
419.800	-54.196	0.099
419.900	-35.513	0.099
420.000	-52.741	0.099
420.100	-44.533	0.099
420.200	-67.079	0.099
420.300	-42.124	0.099
420.400	-54.683	0.099
420.500	-42.557	0.099
420.600	-40.096	0.099
420.700	-56.178	0.099
420.800	-61.973	0.099
420.900	-31.088	0.099
421.000	-45.593	0.099
421.100	-50.654	0.099
421.200	-53.437	0.099
421.300	-51.400	0.099
421.400	-50.195	0.099
421.500	-67.619	0.099
421.600	-40.948	0.099
421.700	-47.899	0.099
421.800	-70.132	0.099
421.900	-47.772	0.099
422.000	-47.910	0.099
422.100	-45.885	0.099
422.200	-56.368	0.099
422.300	-78.506	0.099
422.400	-39.287	0.099
422.500	-51.773	0.099
422.600	-24.184	0.099
422.700	-41.459	0.099
422.800	-45.041	0.099
422.900	-41.522	0.099
423.000	-47.129	0.099
423.100	-55.250	0.099
423.200	-47.889	0.099
423.300	-43.893	0.099
423.400	-43.968	0.099
423.500	-54.902	0.099
423.600	-61.238	0.099
423.700	-42.022	0.099
423.800	-39.560	0.099
423.900	-45.400	0.099
424.000	-53.045	0.099
424.100	-58.196	0.099
424.200	-40.379	0.099
424.300	-50.888	0.099
424.400	-58.155	0.099
424.500	-47.488	0.099
424.600	-45.986	0.099
424.700	-51.700	0.099
424.800	-46.128	0.099
424.900	-33.133	0.099
425.000	-39.718	0.099
425.100	-54.983	0.099
425.200	-43.548	0.099
425.300	-50.265	0.099
425.400	-47.624	0.099
425.500	-37.666	0.099
425.600	-49.408	0.099
425.700	-47.699	0.099
425.800	-57.514	0.099
425.900	-59.837	0.099
426.000	-45.539	0.099
426.100	-61.950	0.099
426.200	-54.546	0.099
426.300	-46.180	0.099
426.400	-54.821	0.099
426.500	-36.789	0.099
426.600	-33.645	0.099
426.700	-43.754	0.099
426.800	-49.819	0.099
426.900	-48.727	0.099
427.000	-54.609	0.099
427.100	-53.828	0.099
427.200	-59.404	0.099
427.300	-40.073	0.099
427.400	-48.506	0.099
427.500	-46.861	0.099
427.600	-53.220	0.099
427.700	-60.072	0.099
427.800	-38.341	0.099
427.900	-58.057	0.099
428.000	-44.614	0.099
428.100	-37.795	0.099
428.200	-43.397	0.099
428.300	-64.006	0.099
428.400	-59.219	0.099
428.500	-49.609	0.099
428.600	-37.554	0.099
428.700	-61.061	0.099
428.800	-57.790	0.099
428.900	-45.474	0.099
429.000	-39.450	0.099
429.100	-45.232	0.099
429.200	-47.592	0.099
429.300	-54.413	0.099
429.400	-48.051	0.099
429.500	-47.950	0.099
429.600	-46.937	0.099
429.700	-41.747	0.099
429.800	-54.240	0.099
429.900	-34.380	0.099
430.000	-48.456	0.099
430.100	-53.652	0.099
430.200	-59.314	0.099
430.300	-49.141	0.099
430.400	-44.239	0.099
430.500	-62.005	0.099
430.600	-50.635	0.099
430.700	-38.105	0.099
430.800	-50.022	0.099
430.900	-47.241	0.099
431.000	-33.893	0.099
431.100	-43.128	0.099
431.200	-30.229	0.099
431.300	-42.399	0.099
431.400	-41.262	0.099
431.500	-55.432	0.099
431.600	-57.353	0.099
431.700	-36.605	0.099
431.800	-36.731	0.099
431.900	-29.342	0.099
432.000	-62.817	0.099
432.100	-42.887	0.099
432.200	-56.609	0.099
432.300	-42.826	0.099
432.400	-61.491	0.099
432.500	-52.262	0.099
432.600	-41.028	0.099
432.700	-44.042	0.099
432.800	-48.626	0.099
432.900	-42.076	0.099
433.000	-57.385	0.099
433.100	-48.047	0.099
433.200	-43.022	0.099
433.300	-64.249	0.099
433.400	-46.311	0.099
433.500	-43.788	0.099
433.600	-30.154	0.099
433.700	-34.112	0.099
433.800	-37.760	0.099
433.900	-41.046	0.099
434.000	-52.743	0.099
434.100	-45.556	0.099
434.200	-38.207	0.099
434.300	-42.985	0.099
434.400	-42.764	0.099
434.500	-45.720	0.099
434.600	-56.771	0.099
434.700	-47.344	0.099
434.800	-40.342	0.099
434.900	-39.954	0.099
435.000	-43.154	0.099
435.100	-44.207	0.099
435.200	-56.941	0.099
435.300	-58.480	0.099
435.400	-29.687	0.099
435.500	-39.978	0.099
435.600	-52.516	0.099
435.700	-35.139	0.099
435.800	-40.833	0.099
435.900	-39.866	0.099
436.000	-56.682	0.099
436.100	-38.460	0.099
436.200	-40.433	0.099
436.300	-46.270	0.099
436.400	-62.514	0.099
436.500	-36.332	0.099
436.600	-33.077	0.099
436.700	-53.462	0.099
436.800	-35.681	0.099
436.900	-53.404	0.099
437.000	-15.784	0.099
437.100	-67.032	0.099
437.200	-42.385	0.099
437.300	-46.829	0.099
437.400	-26.858	0.099
437.500	-31.120	0.099
437.600	-35.055	0.099
437.700	-36.965	0.099
437.800	-38.926	0.099
437.900	-42.603	0.099
438.000	-51.098	0.099
438.100	-38.495	0.099
438.200	-46.287	0.099
438.300	-42.813	0.099
438.400	-31.218	0.099
438.500	-49.294	0.099
438.600	-49.808	0.099
438.700	-50.652	0.099
438.800	-27.639	0.099
438.900	-28.223	0.099
439.000	-42.054	0.099
439.100	-71.790	0.099
439.200	-70.940	0.099
439.300	-56.545	0.099
439.400	-40.360	0.099
439.500	-35.290	0.099
439.600	-36.444	0.099
439.700	-48.538	0.099
439.800	-40.705	0.099
439.900	-47.809	0.099
440.000	-36.593	0.099
440.100	-58.058	0.099
440.200	-30.180	0.099
440.300	-29.764	0.099
440.400	-36.388	0.099
440.500	-48.146	0.099
440.600	-30.044	0.099
440.700	-26.417	0.099
440.800	-64.859	0.099
440.900	-50.236	0.099
441.000	-24.308	0.099
441.100	-44.275	0.099
441.200	-21.397	0.099
441.300	-38.101	0.099
441.400	-41.706	0.099
441.500	-28.149	0.099
441.600	-42.962	0.099
441.700	-42.099	0.099
441.800	-48.035	0.099
441.900	-34.244	0.099
442.000	-19.555	0.099
442.100	-55.140	0.099
442.200	-39.002	0.099
442.300	-38.647	0.099
442.400	-45.521	0.099
442.500	-55.206	0.099
442.600	-26.540	0.099
442.700	-38.434	0.099
442.800	-49.376	0.099
442.900	-18.239	0.099
443.000	-40.841	0.099
443.100	-51.339	0.099
443.200	-47.901	0.099
443.300	-46.908	0.099
443.400	-39.014	0.099
443.500	-30.982	0.099
443.600	-38.835	0.099
443.700	-38.853	0.099
443.800	-50.539	0.099
443.900	-42.560	0.099
444.000	-26.047	0.099
444.100	-34.693	0.099
444.200	-34.454	0.099
444.300	-60.010	0.099
444.400	-37.424	0.099
444.500	-38.586	0.099
444.600	-38.118	0.099
444.700	-50.853	0.099
444.800	-53.215	0.099
444.900	-32.706	0.099
445.000	-43.575	0.099
445.100	-34.437	0.099
445.200	-45.754	0.099
445.300	-43.322	0.099
445.400	-40.798	0.099
445.500	-34.556	0.099
445.600	-72.733	0.099
445.700	-56.386	0.099
445.800	-33.144	0.099
445.900	-37.539	0.099
446.000	-42.723	0.099
446.100	-35.043	0.099
446.200	-45.250	0.099
446.300	-39.222	0.099
446.400	-34.995	0.099
446.500	-34.304	0.099
446.600	-26.448	0.099
446.700	-30.474	0.099
446.800	-51.501	0.099
446.900	-31.828	0.099
447.000	-34.681	0.099
447.100	-35.490	0.099
447.200	-40.945	0.099
447.300	-47.045	0.099
447.400	-33.004	0.099
447.500	-22.301	0.099
447.600	-47.869	0.099
447.700	-40.990	0.099
447.800	-50.324	0.099
447.900	-47.833	0.099
448.000	-22.104	0.099
448.100	-51.815	0.099
448.200	-42.400	0.099
448.300	-45.339	0.099
448.400	-25.199	0.099
448.500	-42.128	0.099
448.600	-35.569	0.099
448.700	-33.849	0.099
448.800	-29.557	0.099
448.900	-47.965	0.099
449.000	-30.447	0.099
449.100	-43.100	0.099
449.200	-61.836	0.099
449.300	-37.559	0.099
449.400	-40.781	0.099
449.500	-22.010	0.099
449.600	-32.145	0.099
449.700	-47.902	0.099
449.800	-50.290	0.099
449.900	-33.655	0.099
450.000	-21.729	0.099
450.100	-24.312	0.099
450.200	-28.324	0.099
450.300	-37.395	0.099
450.400	-34.794	0.099
450.500	-39.347	0.099
450.600	-37.345	0.099
450.700	-44.390	0.099
450.800	-35.399	0.099
450.900	-59.324	0.099
451.000	-47.084	0.099
451.100	-40.540	0.099
451.200	-44.575	0.099
451.300	-33.523	0.099
451.400	-26.423	0.099
451.500	-46.227	0.099
451.600	-45.770	0.099
451.700	-41.868	0.099
451.800	-12.226	0.099
451.900	-33.495	0.099
452.000	-47.744	0.099
452.100	-48.630	0.099
452.200	-43.838	0.099
452.300	-19.165	0.099
452.400	-32.507	0.099
452.500	-35.959	0.099
452.600	-54.712	0.099
452.700	-59.637	0.099
452.800	-33.809	0.099
452.900	-47.836	0.099
453.000	-19.225	0.099
453.100	-33.688	0.099
453.200	-32.755	0.099
453.300	-54.837	0.099
453.400	-30.430	0.099
453.500	-27.760	0.099
453.600	-37.885	0.099
453.700	-40.099	0.099
453.800	-15.992	0.099
453.900	-36.806	0.099
454.000	-44.439	0.099
454.100	-51.491	0.099
454.200	-49.268	0.099
454.300	-18.771	0.099
454.400	-42.711	0.099
454.500	-20.697	0.099
454.600	-54.978	0.099
454.700	-39.816	0.099
454.800	-49.576	0.099
454.900	-1.388	0.099
455.000	-26.108	0.099
455.100	-44.766	0.099
455.200	-36.337	0.099
455.300	-45.167	0.099
455.400	-47.471	0.099
455.500	-18.657	0.099
455.600	-26.512	0.099
455.700	-44.662	0.099
455.800	-45.611	0.099
455.900	-34.203	0.099
456.000	-45.017	0.099
456.100	-38.073	0.099
456.200	-39.743	0.099
456.300	-39.916	0.099
456.400	-40.035	0.099
456.500	-36.690	0.099
456.600	-31.654	0.099
456.700	-22.949	0.099
456.800	-40.168	0.099
456.900	-35.125	0.099
457.000	-41.320	0.099
457.100	-17.357	0.099
457.200	-13.298	0.099
457.300	-42.589	0.099
457.400	-28.366	0.099
457.500	-38.475	0.099
457.600	-40.636	0.099
457.700	-43.294	0.099
457.800	-33.802	0.099
457.900	-38.757	0.099
458.000	-40.139	0.099
458.100	-34.377	0.099
458.200	-55.277	0.099
458.300	-49.819	0.099
458.400	-34.437	0.099
458.500	-30.961	0.099
458.600	-21.391	0.099
458.700	-41.592	0.099
458.800	-27.586	0.099
458.900	-19.917	0.099
459.000	-41.107	0.099
459.100	-27.704	0.099
459.200	-34.203	0.099
459.300	-35.544	0.099
459.400	-40.343	0.099
459.500	-29.434	0.099
459.600	-44.427	0.099
459.700	-49.677	0.099
459.800	-35.616	0.099
459.900	-25.487	0.099
460.000	-38.607	0.099
460.100	-23.698	0.099
460.200	-25.573	0.099
460.300	-47.592	0.099
460.400	-40.875	0.099
460.500	-22.646	0.099
460.600	-43.648	0.099
460.700	-32.619	0.099
460.800	-41.278	0.099
460.900	-34.837	0.099
461.000	-34.900	0.099
461.100	-33.045	0.099
461.200	-31.372	0.099
461.300	-46.667	0.099
461.400	-24.813	0.099
461.500	-45.584	0.099
461.600	-42.896	0.099
461.700	-33.637	0.099
461.800	-28.737	0.099
461.900	-34.688	0.099
462.000	-23.222	0.099
462.100	-30.284	0.099
462.200	-26.542	0.099
462.300	-47.760	0.099
462.400	-14.830	0.099
462.500	-27.109	0.099
462.600	-53.772	0.099
462.700	-33.529	0.099
462.800	-36.512	0.099
462.900	-47.969	0.099
463.000	-24.058	0.099
463.100	-44.591	0.099
463.200	-35.019	0.099
463.300	-20.350	0.099
463.400	-30.106	0.099
463.500	-33.346	0.099
463.600	-41.418	0.099
463.700	-31.946	0.099
463.800	-30.489	0.099
463.900	-39.568	0.099
464.000	-18.747	0.099
464.100	-31.240	0.099
464.200	-33.262	0.099
464.300	-16.870	0.099
464.400	-25.600	0.099
464.500	-42.696	0.099
464.600	-39.605	0.099
464.700	-55.513	0.099
464.800	-29.555	0.099
464.900	-27.126	0.099
465.000	-22.942	0.099
465.100	-27.831	0.099
465.200	-28.605	0.099
465.300	-42.580	0.099
465.400	-37.438	0.099
465.500	-33.729	0.099
465.600	-41.228	0.099
465.700	-29.990	0.099
465.800	-30.476	0.099
465.900	-41.230	0.099
466.000	-45.743	0.099
466.100	-26.447	0.099
466.200	-40.669	0.099
466.300	-17.486	0.099
466.400	-42.941	0.099
466.500	-57.926	0.099
466.600	-43.875	0.099
466.700	-25.461	0.099
466.800	-21.363	0.099
466.900	-37.293	0.099
467.000	-50.069	0.099
467.100	-27.229	0.099
467.200	-41.178	0.099
467.300	-24.147	0.099
467.400	-39.023	0.099
467.500	-25.493	0.099
467.600	-46.660	0.099
467.700	-55.999	0.099
467.800	-32.666	0.099
467.900	-13.022	0.099
468.000	-41.980	0.099
468.100	-41.108	0.099
468.200	-39.308	0.099
468.300	-39.156	0.099
468.400	-31.283	0.099
468.500	-18.856	0.099
468.600	-29.004	0.099
468.700	-35.230	0.099
468.800	-27.878	0.099
468.900	-26.034	0.099
469.000	-37.151	0.099
469.100	-36.743	0.099
469.200	-31.988	0.099
469.300	-41.666	0.099
469.400	-25.703	0.099
469.500	-37.343	0.099
469.600	-30.794	0.099
469.700	-50.466	0.099
469.800	-24.921	0.099
469.900	-26.527	0.099
470.000	-22.569	0.099
470.100	-30.045	0.099
470.200	-45.174	0.099
470.300	-32.452	0.099
470.400	-17.791	0.099
470.500	-36.874	0.099
470.600	-36.480	0.099
470.700	-44.822	0.099
470.800	-35.999	0.099
470.900	-40.180	0.099
471.000	-21.461	0.099
471.100	-33.456	0.099
471.200	-20.313	0.099
471.300	-35.507	0.099
471.400	-38.388	0.099
471.500	-40.391	0.099
471.600	-34.330	0.099
471.700	-38.490	0.099
471.800	-24.565	0.099
471.900	-38.430	0.099
472.000	-22.911	0.099
472.100	-33.351	0.099
472.200	-43.933	0.099
472.300	-39.360	0.099
472.400	-19.098	0.099
472.500	-24.652	0.099
472.600	-18.637	0.099
472.700	-33.365	0.099
472.800	-45.926	0.099
472.900	-35.988	0.099
473.000	-32.646	0.099
473.100	-41.630	0.099
473.200	-12.204	0.099
473.300	-24.749	0.099
473.400	-41.468	0.099
473.500	-26.330	0.099
473.600	-26.505	0.099
473.700	-28.969	0.099
473.800	-36.456	0.099
473.900	-38.820	0.099
474.000	-52.345	0.099
474.100	-34.182	0.099
474.200	-11.692	0.099
474.300	-21.274	0.099
474.400	-33.982	0.099
474.500	-28.474	0.099
474.600	-11.560	0.099
474.700	-42.732	0.099
474.800	-38.695	0.099
474.900	-48.079	0.099
475.000	-44.658	0.099
475.100	-35.452	0.099
475.200	-18.261	0.099
475.300	-23.949	0.099
475.400	-32.923	0.099
475.500	-39.799	0.099
475.600	-21.120	0.099
475.700	-42.163	0.099
475.800	-17.183	0.099
475.900	-35.605	0.099
476.000	-29.079	0.099
476.100	-27.056	0.099
476.200	-46.568	0.099
476.300	-29.550	0.099
476.400	-30.815	0.099
476.500	-19.166	0.099
476.600	-29.461	0.099
476.700	-33.848	0.099
476.800	-32.743	0.099
476.900	-10.043	0.099
477.000	-46.128	0.099
477.100	-50.268	0.099
477.200	-28.633	0.099
477.300	-37.133	0.099
477.400	-41.042	0.099
477.500	-28.798	0.099
477.600	-16.249	0.099
477.700	-27.960	0.099
477.800	-46.474	0.099
477.900	-28.057	0.099
478.000	-24.192	0.099
478.100	-14.740	0.099
478.200	-28.882	0.099
478.300	-20.921	0.099
478.400	-49.631	0.099
478.500	-26.430	0.099
478.600	-48.983	0.099
478.700	-15.687	0.099
478.800	-17.947	0.099
478.900	-43.177	0.099
479.000	-25.235	0.099
479.100	-49.977	0.099
479.200	-46.070	0.099
479.300	-15.861	0.099
479.400	-41.538	0.099
479.500	-48.654	0.099
479.600	-1.979	0.099
479.700	-22.751	0.099
479.800	-27.550	0.099
479.900	-34.140	0.099
480.000	-43.526	0.099
480.100	-26.341	0.099
480.200	-40.871	0.099
480.300	-33.691	0.099
480.400	-17.828	0.099
480.500	-39.595	0.099
480.600	-26.758	0.099
480.700	-6.749	0.099
480.800	-18.579	0.099
480.900	-11.587	0.099
481.000	5.529	0.099
481.100	7.693	0.099
481.200	24.209	0.099
481.300	39.116	0.099
481.400	-0.980	0.099
481.500	41.895	0.099
481.600	30.627	0.099
481.700	51.292	0.099
481.800	36.081	0.099
481.900	52.852	0.099
482.000	17.484	0.099
482.100	53.208	0.099
482.200	56.318	0.099
482.300	46.004	0.099
482.400	50.723	0.099
482.500	56.120	0.099
482.600	62.072	0.099
482.700	33.030	0.099
482.800	26.545	0.099
482.900	29.217	0.099
483.000	32.542	0.099
483.100	37.910	0.099
483.200	73.786	0.099
483.300	40.917	0.099
483.400	28.709	0.099
483.500	36.047	0.099
483.600	27.911	0.099
483.700	45.854	0.099
483.800	44.224	0.099
483.900	37.772	0.099
484.000	45.823	0.099
484.100	49.824	0.099
484.200	27.397	0.099
484.300	25.276	0.099
484.400	36.215	0.099
484.500	33.711	0.099
484.600	34.548	0.099
484.700	45.575	0.099
484.800	27.283	0.099
484.900	8.447	0.099
485.000	24.211	0.099
485.100	28.853	0.099
485.200	27.958	0.099
485.300	35.943	0.099
485.400	9.980	0.099
485.500	39.590	0.099
485.600	20.296	0.099
485.700	31.306	0.099
485.800	29.170	0.099
485.900	26.215	0.099
486.000	35.741	0.099
486.100	33.835	0.099
486.200	25.670	0.099
486.300	25.895	0.099
486.400	18.108	0.099
486.500	45.633	0.099
486.600	38.799	0.099
486.700	49.128	0.099
486.800	55.697	0.099
486.900	23.189	0.099
487.000	30.187	0.099
487.100	52.199	0.099
487.200	39.017	0.099
487.300	43.772	0.099
487.400	48.376	0.099
487.500	58.169	0.099
487.600	46.704	0.099
487.700	34.598	0.099
487.800	64.582	0.099
487.900	49.403	0.099
488.000	57.181	0.099
488.100	45.241	0.099
488.200	61.444	0.099
488.300	48.575	0.099
488.400	50.872	0.099
488.500	42.804	0.099
488.600	66.077	0.099
488.700	56.058	0.099
488.800	49.063	0.099
488.900	68.940	0.099
489.000	63.078	0.099
489.100	69.343	0.099
489.200	53.175	0.099
489.300	65.503	0.099
489.400	69.697	0.099
489.500	71.501	0.099
489.600	54.368	0.099
489.700	56.879	0.099
489.800	67.404	0.099
489.900	68.642	0.099
490.000	73.853	0.099
490.100	72.450	0.099
490.200	82.969	0.099
490.300	79.541	0.099
490.400	99.372	0.099
490.500	80.443	0.099
490.600	70.126	0.099
490.700	78.644	0.099
490.800	76.986	0.099
490.900	98.229	0.099
491.000	97.941	0.099
491.100	80.267	0.099
491.200	72.119	0.099
491.300	76.573	0.099
491.400	82.992	0.099
491.500	110.094	0.099
491.600	104.701	0.099
491.700	82.308	0.099
491.800	82.670	0.099
491.900	104.982	0.099
492.000	100.500	0.099
492.100	97.160	0.099
492.200	95.613	0.099
492.300	101.645	0.099
492.400	128.968	0.099
492.500	102.080	0.099
492.600	81.131	0.099
492.700	104.856	0.099
492.800	107.134	0.099
492.900	101.610	0.099
493.000	106.483	0.099
493.100	105.393	0.099
493.200	108.405	0.099
493.300	124.888	0.099
493.400	131.850	0.099
493.500	124.898	0.099
493.600	108.808	0.099
493.700	99.593	0.099
493.800	101.465	0.099
493.900	114.266	0.099
494.000	99.008	0.099
494.100	123.703	0.099
494.200	123.513	0.099
494.300	89.749	0.099
494.400	104.697	0.099
494.500	134.867	0.099
494.600	121.933	0.099
494.700	108.942	0.099
494.800	95.567	0.099
494.900	112.578	0.099
495.000	121.235	0.099
495.100	122.734	0.099
495.200	121.570	0.099
495.300	112.901	0.099
495.400	111.176	0.099
495.500	129.851	0.099
495.600	114.473	0.099
495.700	130.261	0.099
495.800	119.291	0.099
495.900	133.069	0.099
496.000	119.000	0.099
496.100	103.272	0.099
496.200	103.416	0.099
496.300	132.785	0.099
496.400	124.149	0.099
496.500	105.425	0.099
496.600	108.751	0.099
496.700	116.408	0.099
496.800	118.056	0.099
496.900	119.656	0.099
497.000	118.053	0.099
497.100	120.686	0.099
497.200	110.421	0.099
497.300	119.348	0.099
497.400	117.843	0.099
497.500	115.038	0.099
497.600	138.490	0.099
497.700	110.359	0.099
497.800	104.074	0.099
497.900	120.117	0.099
498.000	112.459	0.099
498.100	125.314	0.099
498.200	125.340	0.099
498.300	105.393	0.099
498.400	113.918	0.099
498.500	126.664	0.099
498.600	126.982	0.099
498.700	89.846	0.099
498.800	114.382	0.099
498.900	116.435	0.099
499.000	124.934	0.099
499.100	111.528	0.099
499.200	111.674	0.099
499.300	117.779	0.099
499.400	109.522	0.099
499.500	108.011	0.099
499.600	111.899	0.099
499.700	118.246	0.099
499.800	102.752	0.099
499.900	124.642	0.099
500.000	106.978	0.099
500.100	105.400	0.099
500.200	116.661	0.099
500.300	125.510	0.099
500.400	99.855	0.099
500.500	111.715	0.099
500.600	97.086	0.099
500.700	115.845	0.099
500.800	123.029	0.099
500.900	99.901	0.099
501.000	99.472	0.099
501.100	109.306	0.099
501.200	113.072	0.099
501.300	105.282	0.099
501.400	101.806	0.099
501.500	108.951	0.099
501.600	91.582	0.099
501.700	116.526	0.099
501.800	107.229	0.099
501.900	89.174	0.099
502.000	115.891	0.099
502.100	102.360	0.099
502.200	93.928	0.099
502.300	97.971	0.099
502.400	112.089	0.099
502.500	116.903	0.099
502.600	106.217	0.099
502.700	108.111	0.099
502.800	86.375	0.099
502.900	114.956	0.099
503.000	81.734	0.099
503.100	98.177	0.099
503.200	106.169	0.099
503.300	101.248	0.099
503.400	119.224	0.099
503.500	107.923	0.099
503.600	103.149	0.099
503.700	92.160	0.099
503.800	116.458	0.099
503.900	101.590	0.099
504.000	90.976	0.099
504.100	109.928	0.099
504.200	112.668	0.099
504.300	94.844	0.099
504.400	94.833	0.099
504.500	86.231	0.099
504.600	107.941	0.099
504.700	91.535	0.099
504.800	98.496	0.099
504.900	91.148	0.099
505.000	105.959	0.099
505.100	112.297	0.099
505.200	86.964	0.099
505.300	108.093	0.099
505.400	83.743	0.099
505.500	123.290	0.099
505.600	117.203	0.099
505.700	106.377	0.099
505.800	100.750	0.099
505.900	112.060	0.099
506.000	84.842	0.099
506.100	105.101	0.099
506.200	114.726	0.099
506.300	90.563	0.099
506.400	116.082	0.099
506.500	98.595	0.099
506.600	106.643	0.099
506.700	107.831	0.099
506.800	108.002	0.099
506.900	100.530	0.099
507.000	96.267	0.099
507.100	107.497	0.099
507.200	88.720	0.099
507.300	105.040	0.099
507.400	96.431	0.099
507.500	104.891	0.099
507.600	101.173	0.099
507.700	110.580	0.099
507.800	104.739	0.099
507.900	94.384	0.099
508.000	105.172	0.099
508.100	99.253	0.099
508.200	99.258	0.099
508.300	83.631	0.099
508.400	107.623	0.099
508.500	84.060	0.099
508.600	92.820	0.099
508.700	111.028	0.099
508.800	114.735	0.099
508.900	107.054	0.099
509.000	91.858	0.099
509.100	101.728	0.099
509.200	113.591	0.099
509.300	92.975	0.099
509.400	96.060	0.099
509.500	121.313	0.099
509.600	108.910	0.099
509.700	99.083	0.099
509.800	80.843	0.099
509.900	104.017	0.099
510.000	72.389	0.099
510.100	118.280	0.099
510.200	96.532	0.099
510.300	94.806	0.099
510.400	91.028	0.099
510.500	97.506	0.099
510.600	94.624	0.099
510.700	131.311	0.099
510.800	97.964	0.099
510.900	100.010	0.099
511.000	96.505	0.099
511.100	106.195	0.099
511.200	116.652	0.099
511.300	84.678	0.099
511.400	85.893	0.099
511.500	100.682	0.099
511.600	120.268	0.099
511.700	96.943	0.099
511.800	99.587	0.099
511.900	95.065	0.099
512.000	93.955	0.099
512.100	102.759	0.099
512.200	102.664	0.099
512.300	103.046	0.099
512.400	79.800	0.099
512.500	94.465	0.099
512.600	113.111	0.099
512.700	110.395	0.099
512.800	94.567	0.099
512.900	100.221	0.099
513.000	95.282	0.099
513.100	85.441	0.099
513.200	97.851	0.099
513.300	107.848	0.099
513.400	109.237	0.099
513.500	98.260	0.099
513.600	108.045	0.099
513.700	101.934	0.099
513.800	84.993	0.099
513.900	92.133	0.099
514.000	96.967	0.099
514.100	92.211	0.099
514.200	90.401	0.099
514.300	95.902	0.099
514.400	125.567	0.099
514.500	102.925	0.099
514.600	123.903	0.099
514.700	94.728	0.099
514.800	110.838	0.099
514.900	101.325	0.099
515.000	94.693	0.099
515.100	93.602	0.099
515.200	88.090	0.099
515.300	108.493	0.099
515.400	117.066	0.099
515.500	96.129	0.099
515.600	103.668	0.099
515.700	83.785	0.099
515.800	76.994	0.099
515.900	102.151	0.099
516.000	105.872	0.099
516.100	68.633	0.099
516.200	90.096	0.099
516.300	91.303	0.099
516.400	89.487	0.099
516.500	82.972	0.099
516.600	93.037	0.099
516.700	104.659	0.099
516.800	102.137	0.099
516.900	92.676	0.099
517.000	95.277	0.099
517.100	97.479	0.099
517.200	101.365	0.099
517.300	84.177	0.099
517.400	106.434	0.099
517.500	92.393	0.099
517.600	106.511	0.099
517.700	94.944	0.099
517.800	92.036	0.099
517.900	106.309	0.099
518.000	105.224	0.099
518.100	112.915	0.099
518.200	93.992	0.099
518.300	101.150	0.099
518.400	80.832	0.099
518.500	105.867	0.099
518.600	82.932	0.099
518.700	88.673	0.099
518.800	92.650	0.099
518.900	97.793	0.099
519.000	103.543	0.099
519.100	94.800	0.099
519.200	89.851	0.099
519.300	104.870	0.099
519.400	95.943	0.099
519.500	109.806	0.099
519.600	95.637	0.099
519.700	93.359	0.099
519.800	95.762	0.099
519.900	106.622	0.099
520.000	86.730	0.099
520.100	108.491	0.099
520.200	98.240	0.099
520.300	76.638	0.099
520.400	93.905	0.099
520.500	96.819	0.099
520.600	94.848	0.099
520.700	97.781	0.099
520.800	106.541	0.099
520.900	90.660	0.099
521.000	97.682	0.099
521.100	110.447	0.099
521.200	97.488	0.099
521.300	105.533	0.099
521.400	103.815	0.099
521.500	90.582	0.099
521.600	98.907	0.099
521.700	93.871	0.099
521.800	98.752	0.099
521.900	85.385	0.099
522.000	100.721	0.099
522.100	97.752	0.099
522.200	92.300	0.099
522.300	94.793	0.099
522.400	88.207	0.099
522.500	96.893	0.099
522.600	119.168	0.099
522.700	102.588	0.099
522.800	99.507	0.099
522.900	106.896	0.099
523.000	97.802	0.099
523.100	78.596	0.099
523.200	94.334	0.099
523.300	77.014	0.099
523.400	110.351	0.099
523.500	106.643	0.099
523.600	89.043	0.099
523.700	100.494	0.099
523.800	86.959	0.099
523.900	92.750	0.099
524.000	93.959	0.099
524.100	68.358	0.099
524.200	111.422	0.099
524.300	84.428	0.099
524.400	105.941	0.099
524.500	82.391	0.099
524.600	91.912	0.099
524.700	97.423	0.099
524.800	85.704	0.099
524.900	101.496	0.099
525.000	109.892	0.099
525.100	97.023	0.099
525.200	90.480	0.099
525.300	79.958	0.099
525.400	93.124	0.099
525.500	111.250	0.099
525.600	102.343	0.099
525.700	104.936	0.099
525.800	84.357	0.099
525.900	101.273	0.099
526.000	80.370	0.099
526.100	105.933	0.099
526.200	92.511	0.099
526.300	97.263	0.099
526.400	97.232	0.099
526.500	82.286	0.099
526.600	95.838	0.099
526.700	91.236	0.099
526.800	76.347	0.099
526.900	91.087	0.099
527.000	101.368	0.099
527.100	106.213	0.099
527.200	101.175	0.099
527.300	92.178	0.099
527.400	99.099	0.099
527.500	86.926	0.099
527.600	103.242	0.099
527.700	92.217	0.099
527.800	83.633	0.099
527.900	88.678	0.099
528.000	101.125	0.099
528.100	106.016	0.099
528.200	89.718	0.099
528.300	86.980	0.099
528.400	91.323	0.099
528.500	88.795	0.099
528.600	81.729	0.099
528.700	92.590	0.099
528.800	96.812	0.099
528.900	103.588	0.099
529.000	104.270	0.099
529.100	99.901	0.099
529.200	98.082	0.099
529.300	89.454	0.099
529.400	78.540	0.099
529.500	92.542	0.099
529.600	102.875	0.099
529.700	98.911	0.099
529.800	85.213	0.099
529.900	77.741	0.099
530.000	110.137	0.099
530.100	96.967	0.099
530.200	69.963	0.099
530.300	114.265	0.099
530.400	111.750	0.099
530.500	97.154	0.099
530.600	136.628	0.099
530.700	105.811	0.099
530.800	80.451	0.099
530.900	72.323	0.099
531.000	100.038	0.099
531.100	105.378	0.099
531.200	96.693	0.099
531.300	85.834	0.099
531.400	93.198	0.099
531.500	78.529	0.099
531.600	97.308	0.099
531.700	97.011	0.099
531.800	92.103	0.099
531.900	106.085	0.099
532.000	111.512	0.099
532.100	83.783	0.099
532.200	91.283	0.099
532.300	100.037	0.099
532.400	93.497	0.099
532.500	101.826	0.099
532.600	94.398	0.099
532.700	85.808	0.099
532.800	96.858	0.099
532.900	89.781	0.099
533.000	99.207	0.099
533.100	82.136	0.099
533.200	90.494	0.099
533.300	97.187	0.099
533.400	103.535	0.099
533.500	100.495	0.099
533.600	89.670	0.099
533.700	91.480	0.099
533.800	80.515	0.099
533.900	97.240	0.099
534.000	78.429	0.099
534.100	97.398	0.099
534.200	113.101	0.099
534.300	109.400	0.099
534.400	89.351	0.099
534.500	112.923	0.099
534.600	83.122	0.099
534.700	92.762	0.099
534.800	91.139	0.099
534.900	77.798	0.099
535.000	103.063	0.099
535.100	112.248	0.099
535.200	96.646	0.099
535.300	84.381	0.099
535.400	101.714	0.099
535.500	84.465	0.099
535.600	90.171	0.099
535.700	119.167	0.099
535.800	107.734	0.099
535.900	98.581	0.099
536.000	84.794	0.099
536.100	86.073	0.099
536.200	77.308	0.099
536.300	81.868	0.099
536.400	98.307	0.099
536.500	91.654	0.099
536.600	96.384	0.099
536.700	97.546	0.099
536.800	100.577	0.099
536.900	95.720	0.099
537.000	92.299	0.099
537.100	103.396	0.099
537.200	90.107	0.099
537.300	95.898	0.099
537.400	93.297	0.099
537.500	85.568	0.099
537.600	96.798	0.099
537.700	77.183	0.099
537.800	98.220	0.099
537.900	104.156	0.099
538.000	72.491	0.099
538.100	122.298	0.099
538.200	98.387	0.099
538.300	106.622	0.099
538.400	83.232	0.099
538.500	85.641	0.099
538.600	101.292	0.099
538.700	84.717	0.099
538.800	96.618	0.099
538.900	78.802	0.099
539.000	71.595	0.099
539.100	79.104	0.099
539.200	95.573	0.099
539.300	101.809	0.099
539.400	99.911	0.099
539.500	99.863	0.099
539.600	80.264	0.099
539.700	84.414	0.099
539.800	92.631	0.099
539.900	96.894	0.099
540.000	95.977	0.099
540.100	89.634	0.099
540.200	108.907	0.099
540.300	91.789	0.099
540.400	78.594	0.099
540.500	81.008	0.099
540.600	86.302	0.099
540.700	92.120	0.099
540.800	67.497	0.099
540.900	55.978	0.099
541.000	54.080	0.099
541.100	47.537	0.099
541.200	35.943	0.099
541.300	23.910	0.099
541.400	17.317	0.099
541.500	29.031	0.099
541.600	14.221	0.099
541.700	-7.471	0.099
541.800	5.773	0.099
541.900	-11.329	0.099
542.000	7.741	0.099
542.100	-30.719	0.099
542.200	-7.421	0.099
542.300	-3.131	0.099
542.400	-3.995	0.099
542.500	-18.338	0.099
542.600	-15.333	0.099
542.700	-35.771	0.099
542.800	-35.238	0.099
542.900	-21.217	0.099
543.000	-25.296	0.099
543.100	-25.262	0.099
543.200	-37.417	0.099
543.300	-21.470	0.099
543.400	-25.789	0.099
543.500	-47.318	0.099
543.600	-60.097	0.099
543.700	-45.235	0.099
543.800	-39.603	0.099
543.900	-20.054	0.099
544.000	-18.532	0.099
544.100	-44.385	0.099
544.200	-37.741	0.099
544.300	-37.436	0.099
544.400	-33.825	0.099
544.500	-40.600	0.099
544.600	-29.739	0.099
544.700	-53.582	0.099
544.800	-42.392	0.099
544.900	-33.286	0.099
545.000	-35.722	0.099
545.100	-29.284	0.099
545.200	-22.829	0.099
545.300	-63.652	0.099
545.400	-30.256	0.099
545.500	-19.883	0.099
545.600	-14.289	0.099
545.700	-29.728	0.099
545.800	-32.687	0.099
545.900	-35.846	0.099
546.000	-22.434	0.099
546.100	-33.201	0.099
546.200	-26.602	0.099
546.300	-33.760	0.099
546.400	-33.730	0.099
546.500	-51.969	0.099
546.600	-42.825	0.099
546.700	-55.736	0.099
546.800	-20.779	0.099
546.900	-36.154	0.099
547.000	-19.660	0.099
547.100	-26.159	0.099
547.200	-48.095	0.099
547.300	-16.887	0.099
547.400	-34.397	0.099
547.500	-35.580	0.099
547.600	-26.879	0.099
547.700	-26.320	0.099
547.800	-36.321	0.099
547.900	-46.616	0.099
548.000	-15.865	0.099
548.100	-37.982	0.099
548.200	-23.840	0.099
548.300	-25.793	0.099
548.400	-42.674	0.099
548.500	-53.785	0.099
548.600	-34.974	0.099
548.700	-21.989	0.099
548.800	-25.442	0.099
548.900	-51.289	0.099
549.000	-19.103	0.099
549.100	-40.394	0.099
549.200	-55.733	0.099
549.300	-25.004	0.099
549.400	-13.055	0.099
549.500	-29.075	0.099
549.600	-37.505	0.099
549.700	-12.302	0.099
549.800	-52.845	0.099
549.900	-34.263	0.099
550.000	-51.889	0.099
550.100	-19.589	0.099
550.200	-39.971	0.099
550.300	-17.169	0.099
550.400	-46.430	0.099
550.500	-30.560	0.099
550.600	-44.072	0.099
550.700	-39.302	0.099
550.800	-21.156	0.099
550.900	-39.297	0.099
551.000	-25.522	0.099
551.100	-48.490	0.099
551.200	-52.483	0.099
551.300	-38.783	0.099
551.400	-18.651	0.099
551.500	-33.301	0.099
551.600	-23.460	0.099
551.700	-43.224	0.099
551.800	-33.864	0.099
551.900	-36.003	0.099
552.000	-31.546	0.099
552.100	-33.993	0.099
552.200	-26.485	0.099
552.300	-34.463	0.099
552.400	-15.182	0.099
552.500	-34.676	0.099
552.600	-43.556	0.099
552.700	-48.011	0.099
552.800	-61.035	0.099
552.900	-32.533	0.099
553.000	-24.358	0.099
553.100	-38.686	0.099
553.200	-31.053	0.099
553.300	-59.979	0.099
553.400	-49.103	0.099
553.500	-34.151	0.099
553.600	-42.507	0.099
553.700	-47.723	0.099
553.800	-30.352	0.099
553.900	-43.741	0.099
554.000	-29.555	0.099
554.100	-47.707	0.099
554.200	-21.349	0.099
554.300	-37.940	0.099
554.400	-48.234	0.099
554.500	-16.600	0.099
554.600	-41.535	0.099
554.700	-38.141	0.099
554.800	-46.290	0.099
554.900	-40.237	0.099
555.000	-50.910	0.099
555.100	-30.854	0.099
555.200	-28.293	0.099
555.300	-43.121	0.099
555.400	-59.419	0.099
555.500	-41.823	0.099
555.600	-53.462	0.099
555.700	-18.090	0.099
555.800	-52.722	0.099
555.900	-40.725	0.099
556.000	-21.548	0.099
556.100	-37.236	0.099
556.200	-65.043	0.099
556.300	-38.363	0.099
556.400	-39.584	0.099
556.500	-40.975	0.099
556.600	-40.511	0.099
556.700	-48.084	0.099
556.800	-52.614	0.099
556.900	-40.541	0.099
557.000	-43.675	0.099
557.100	-42.632	0.099
557.200	-37.611	0.099
557.300	-45.157	0.099
557.400	-31.484	0.099
557.500	-40.425	0.099
557.600	-56.034	0.099
557.700	-46.899	0.099
557.800	-30.377	0.099
557.900	-57.856	0.099
558.000	-51.432	0.099
558.100	-46.994	0.099
558.200	-40.529	0.099
558.300	-31.635	0.099
558.400	-55.868	0.099
558.500	-35.174	0.099
558.600	-56.455	0.099
558.700	-50.037	0.099
558.800	-33.583	0.099
558.900	-58.813	0.099
559.000	-44.560	0.099
559.100	-46.857	0.099
559.200	-57.310	0.099
559.300	-39.663	0.099
559.400	-31.511	0.099
559.500	-33.201	0.099
559.600	-39.201	0.099
559.700	-61.092	0.099
559.800	-63.331	0.099
559.900	-34.486	0.099
560.000	-54.069	0.099
560.100	-64.495	0.099
560.200	-21.936	0.099
560.300	-48.679	0.099
560.400	-39.337	0.099
560.500	-75.868	0.099
560.600	-37.218	0.099
560.700	-50.705	0.099
560.800	-60.642	0.099
560.900	-35.925	0.099
561.000	-50.544	0.099
561.100	-56.095	0.099
561.200	-49.309	0.099
561.300	-52.449	0.099
561.400	-60.669	0.099
561.500	-47.808	0.099
561.600	-55.292	0.099
561.700	-79.432	0.099
561.800	-40.628	0.099
561.900	-45.458	0.099
562.000	-31.764	0.099
562.100	-53.081	0.099
562.200	-33.727	0.099
562.300	-58.605	0.099
562.400	-70.384	0.099
562.500	-42.948	0.099
562.600	-53.059	0.099
562.700	-52.591	0.099
562.800	-40.950	0.099
562.900	-28.054	0.099
563.000	-42.685	0.099
563.100	-43.043	0.099
563.200	-54.023	0.099
563.300	-55.513	0.099
563.400	-57.885	0.099
563.500	-52.901	0.099
563.600	-40.416	0.099
563.700	-37.716	0.099
563.800	-40.477	0.099
563.900	-71.036	0.099
564.000	-62.124	0.099
564.100	-68.707	0.099
564.200	-55.366	0.099
564.300	-35.727	0.099
564.400	-55.150	0.099
564.500	-48.385	0.099
564.600	-56.547	0.099
564.700	-50.992	0.099
564.800	-39.256	0.099
564.900	-39.111	0.099
565.000	-50.369	0.099
565.100	-44.917	0.099
565.200	-57.551	0.099
565.300	-50.348	0.099
565.400	-50.220	0.099
565.500	-52.222	0.099
565.600	-56.652	0.099
565.700	-40.431	0.099
565.800	-62.752	0.099
565.900	-52.867	0.099
566.000	-46.376	0.099
566.100	-45.852	0.099
566.200	-63.086	0.099
566.300	-57.754	0.099
566.400	-51.939	0.099
566.500	-40.845	0.099
566.600	-50.283	0.099
566.700	-56.706	0.099
566.800	-52.802	0.099
566.900	-47.801	0.099
567.000	-54.127	0.099
567.100	-50.227	0.099
567.200	-41.459	0.099
567.300	-59.921	0.099
567.400	-42.245	0.099
567.500	-52.993	0.099
567.600	-58.012	0.099
567.700	-51.421	0.099
567.800	-45.130	0.099
567.900	-61.176	0.099
568.000	-49.700	0.099
568.100	-64.128	0.099
568.200	-58.553	0.099
568.300	-57.736	0.099
568.400	-52.003	0.099
568.500	-33.906	0.099
568.600	-59.452	0.099
568.700	-35.960	0.099
568.800	-59.500	0.099
568.900	-75.111	0.099
569.000	-39.184	0.099
569.100	-56.906	0.099
569.200	-63.197	0.099
569.300	-61.035	0.099
569.400	-74.804	0.099
569.500	-65.793	0.099
569.600	-53.241	0.099
569.700	-67.062	0.099
569.800	-62.837	0.099
569.900	-54.189	0.099
570.000	-40.244	0.099
570.100	-23.934	0.099
570.200	-63.688	0.099
570.300	-68.522	0.099
570.400	-54.115	0.099
570.500	-56.198	0.099
570.600	-54.941	0.099
570.700	-45.364	0.099
570.800	-57.317	0.099
570.900	-38.717	0.099
571.000	-32.430	0.099
571.100	-68.300	0.099
571.200	-60.617	0.099
571.300	-56.763	0.099
571.400	-57.495	0.099
571.500	-47.166	0.099
571.600	-55.002	0.099
571.700	-46.667	0.099
571.800	-61.548	0.099
571.900	-71.827	0.099
572.000	-55.985	0.099
572.100	-50.064	0.099
572.200	-45.467	0.099
572.300	-47.799	0.099
572.400	-70.468	0.099
572.500	-62.713	0.099
572.600	-73.659	0.099
572.700	-52.080	0.099
572.800	-55.030	0.099
572.900	-42.361	0.099
573.000	-70.012	0.099
573.100	-39.290	0.099
573.200	-54.585	0.099
573.300	-50.128	0.099
573.400	-61.827	0.099
573.500	-61.783	0.099
573.600	-53.100	0.099
573.700	-36.813	0.099
573.800	-40.894	0.099
573.900	-49.418	0.099
574.000	-56.742	0.099
574.100	-85.901	0.099
574.200	-40.611	0.099
574.300	-58.739	0.099
574.400	-46.577	0.099
574.500	-63.577	0.099
574.600	-44.668	0.099
574.700	-54.041	0.099
574.800	-43.282	0.099
574.900	-63.724	0.099
575.000	-81.137	0.099
575.100	-32.118	0.099
575.200	-46.437	0.099
575.300	-71.309	0.099
575.400	-34.466	0.099
575.500	-61.791	0.099
575.600	-81.311	0.099
575.700	-59.545	0.099
575.800	-39.347	0.099
575.900	-60.009	0.099
576.000	-60.785	0.099
576.100	-49.088	0.099
576.200	-55.008	0.099
576.300	-38.257	0.099
576.400	-44.131	0.099
576.500	-66.876	0.099
576.600	-60.011	0.099
576.700	-35.821	0.099
576.800	-58.333	0.099
576.900	-37.729	0.099
577.000	-53.167	0.099
577.100	-64.315	0.099
577.200	-62.092	0.099
577.300	-39.601	0.099
577.400	-37.038	0.099
577.500	-59.526	0.099
577.600	-71.282	0.099
577.700	-75.402	0.099
577.800	-53.808	0.099
577.900	-41.564	0.099
578.000	-43.758	0.099
578.100	-43.328	0.099
578.200	-56.853	0.099
578.300	-46.064	0.099
578.400	-43.887	0.099
578.500	-43.257	0.099
578.600	-70.627	0.099
578.700	-49.993	0.099
578.800	-31.855	0.099
578.900	-46.161	0.099
579.000	-56.499	0.099
579.100	-70.821	0.099
579.200	-57.195	0.099
579.300	-66.623	0.099
579.400	-25.417	0.099
579.500	-56.788	0.099
579.600	-45.483	0.099
579.700	-42.270	0.099
579.800	-66.004	0.099
579.900	-51.640	0.099
580.000	-38.183	0.099
580.100	-54.586	0.099
580.200	-49.171	0.099
580.300	-53.506	0.099
580.400	-54.859	0.099
580.500	-43.977	0.099
580.600	-66.073	0.099
580.700	-63.328	0.099
580.800	-63.550	0.099
580.900	-52.475	0.099
581.000	-49.443	0.099
581.100	-39.096	0.099
581.200	-45.406	0.099
581.300	-44.249	0.099
581.400	-52.119	0.099
581.500	-43.895	0.099
581.600	-45.587	0.099
581.700	-62.131	0.099
581.800	-46.688	0.099
581.900	-51.881	0.099
582.000	-74.456	0.099
582.100	-43.827	0.099
582.200	-53.715	0.099
582.300	-44.776	0.099
582.400	-44.155	0.099
582.500	-57.982	0.099
582.600	-64.759	0.099
582.700	-51.798	0.099
582.800	-37.647	0.099
582.900	-47.423	0.099
583.000	-42.154	0.099
583.100	-53.033	0.099
583.200	-39.229	0.099
583.300	-55.388	0.099
583.400	-49.931	0.099
583.500	-56.469	0.099
583.600	-51.246	0.099
583.700	-55.251	0.099
583.800	-61.053	0.099
583.900	-38.751	0.099
584.000	-32.710	0.099
584.100	-40.359	0.099
584.200	-41.323	0.099
584.300	-38.730	0.099
584.400	-64.089	0.099
584.500	-44.510	0.099
584.600	-56.288	0.099
584.700	-72.473	0.099
584.800	-50.286	0.099
584.900	-47.457	0.099
585.000	-47.843	0.099
585.100	-44.834	0.099
585.200	-51.018	0.099
585.300	-54.103	0.099
585.400	-44.895	0.099
585.500	-68.339	0.099
585.600	-56.861	0.099
585.700	-64.787	0.099
585.800	-60.245	0.099
585.900	-33.818	0.099
586.000	-36.121	0.099
586.100	-46.167	0.099
586.200	-64.878	0.099
586.300	-44.687	0.099
586.400	-49.183	0.099
586.500	-44.849	0.099
586.600	-42.189	0.099
586.700	-59.207	0.099
586.800	-44.378	0.099
586.900	-57.550	0.099
587.000	-41.137	0.099
587.100	-56.683	0.099
587.200	-44.418	0.099
587.300	-52.547	0.099
587.400	-55.220	0.099
587.500	-61.430	0.099
587.600	-46.982	0.099
587.700	-49.590	0.099
587.800	-54.352	0.099
587.900	-59.098	0.099
588.000	-49.286	0.099
588.100	-50.618	0.099
588.200	-40.613	0.099
588.300	-53.965	0.099
588.400	-72.158	0.099
588.500	-47.048	0.099
588.600	-35.809	0.099
588.700	-62.393	0.099
588.800	-44.388	0.099
588.900	-52.325	0.099
589.000	-35.468	0.099
589.100	-37.098	0.099
589.200	-52.781	0.099
589.300	-38.644	0.099
589.400	-51.581	0.099
589.500	-62.858	0.099
589.600	-35.450	0.099
589.700	-52.995	0.099
589.800	-49.346	0.099
589.900	-65.085	0.099
590.000	-28.947	0.099
590.100	-62.425	0.099
590.200	-53.249	0.099
590.300	-41.134	0.099
590.400	-43.434	0.099
590.500	-46.704	0.099
590.600	-54.039	0.099
590.700	-63.008	0.099
590.800	-54.752	0.099
590.900	-53.717	0.099
591.000	-46.455	0.099
591.100	-47.587	0.099
591.200	-50.031	0.099
591.300	-38.838	0.099
591.400	-48.993	0.099
591.500	-45.167	0.099
591.600	-42.875	0.099
591.700	-52.172	0.099
591.800	-52.893	0.099
591.900	-43.037	0.099
592.000	-44.317	0.099
592.100	-41.838	0.099
592.200	-44.022	0.099
592.300	-51.730	0.099
592.400	-50.910	0.099
592.500	-45.582	0.099
592.600	-34.702	0.099
592.700	-33.734	0.099
592.800	-64.240	0.099
592.900	-62.329	0.099
593.000	-32.024	0.099
593.100	-32.835	0.099
593.200	-40.039	0.099
593.300	-40.871	0.099
593.400	-59.423	0.099
593.500	-43.918	0.099
593.600	-48.594	0.099
593.700	-71.496	0.099
593.800	-32.440	0.099
593.900	-42.341	0.099
594.000	-50.404	0.099
594.100	-58.421	0.099
594.200	-40.816	0.099
594.300	-32.333	0.099
594.400	-52.569	0.099
594.500	-52.173	0.099
594.600	-44.391	0.099
594.700	-37.754	0.099
594.800	-47.842	0.099
594.900	-34.277	0.099
595.000	-56.089	0.099
595.100	-51.490	0.099
595.200	-59.997	0.099
595.300	-42.891	0.099
595.400	-36.534	0.099
595.500	-33.669	0.099
595.600	-20.375	0.099
595.700	-70.499	0.099
595.800	-60.794	0.099
595.900	-55.930	0.099
596.000	-55.379	0.099
596.100	-45.354	0.099
596.200	-30.727	0.099
596.300	-34.728	0.099
596.400	-46.922	0.099
596.500	-50.408	0.099
596.600	-53.326	0.099
596.700	-56.643	0.099
596.800	-45.944	0.099
596.900	-37.284	0.099
597.000	-33.921	0.099
597.100	-40.061	0.099
597.200	-27.738	0.099
597.300	-50.362	0.099
597.400	-38.687	0.099
597.500	-55.806	0.099
597.600	-57.847	0.099
597.700	-40.611	0.099
597.800	-25.024	0.099
597.900	-37.717	0.099
598.000	-52.576	0.099
598.100	-35.940	0.099
598.200	-43.710	0.099
598.300	-58.792	0.099
598.400	-42.907	0.099
598.500	-51.872	0.099
598.600	-35.069	0.099
598.700	-26.465	0.099
598.800	-42.678	0.099
598.900	-36.243	0.099
599.000	-52.550	0.099
599.100	-39.617	0.099
599.200	-40.311	0.099
599.300	-34.414	0.099
599.400	-41.503	0.099
599.500	-36.366	0.099
599.600	-38.530	0.099
599.700	-52.573	0.099
599.800	-26.454	0.099
599.900	-34.131	0.099
600.000	-42.300	0.099
600.100	-44.927	0.099
600.200	-41.848	0.099
600.300	-23.942	0.099
600.400	-25.557	0.099
600.500	-46.798	0.099
600.600	-36.981	0.099
600.700	-38.189	0.099
600.800	-58.781	0.099
600.900	-41.562	0.099
601.000	-38.383	0.099
601.100	-43.281	0.099
601.200	-32.417	0.099
601.300	-32.100	0.099
601.400	-33.817	0.099
601.500	-57.222	0.099
601.600	-44.289	0.099
601.700	-48.466	0.099
601.800	-37.115	0.099
601.900	-17.202	0.099
602.000	-37.932	0.099
602.100	-43.714	0.099
602.200	-40.168	0.099
602.300	-47.642	0.099
602.400	-38.141	0.099
602.500	-24.142	0.099
602.600	-35.671	0.099
602.700	-42.674	0.099
602.800	-45.942	0.099
602.900	-48.672	0.099
603.000	-41.820	0.099
603.100	-40.046	0.099
603.200	-46.660	0.099
603.300	-51.832	0.099
603.400	-45.472	0.099
603.500	-27.491	0.099
603.600	-35.673	0.099
603.700	-38.039	0.099
603.800	-44.101	0.099
603.900	-38.235	0.099
604.000	-47.276	0.099
604.100	-42.170	0.099
604.200	-34.091	0.099
604.300	-39.375	0.099
604.400	-42.802	0.099
604.500	-34.295	0.099
604.600	-55.132	0.099
604.700	-42.867	0.099
604.800	-36.875	0.099
604.900	-36.195	0.099
605.000	-43.457	0.099
605.100	-52.689	0.099
605.200	-52.308	0.099
605.300	-28.860	0.099
605.400	-48.018	0.099
605.500	-30.719	0.099
605.600	-37.636	0.099
605.700	-66.307	0.099
605.800	-24.399	0.099
605.900	-33.940	0.099
606.000	-39.195	0.099
606.100	-43.294	0.099
606.200	-30.606	0.099
606.300	-43.026	0.099
606.400	-34.161	0.099
606.500	-25.846	0.099
606.600	-40.616	0.099
606.700	-56.611	0.099
606.800	-34.092	0.099
606.900	-58.636	0.099
607.000	-30.144	0.099
607.100	-38.332	0.099
607.200	-28.345	0.099
607.300	-38.470	0.099
607.400	-34.006	0.099
607.500	-29.289	0.099
607.600	-36.736	0.099
607.700	-34.819	0.099
607.800	-47.057	0.099
607.900	-52.080	0.099
608.000	-32.771	0.099
608.100	-49.934	0.099
608.200	-37.930	0.099
608.300	-48.757	0.099
608.400	-31.473	0.099
608.500	-48.113	0.099
608.600	-33.772	0.099
608.700	-44.357	0.099
608.800	-38.152	0.099
608.900	-41.145	0.099
609.000	-32.705	0.099
609.100	-43.447	0.099
609.200	-41.291	0.099
609.300	-34.113	0.099
609.400	-43.554	0.099
609.500	-47.193	0.099
609.600	-38.999	0.099
609.700	-48.485	0.099
609.800	-41.006	0.099
609.900	-27.882	0.099
610.000	-28.662	0.099
610.100	-40.176	0.099
610.200	-46.749	0.099
610.300	-44.107	0.099
610.400	-61.979	0.099
610.500	-31.416	0.099
610.600	-11.763	0.099
610.700	-33.000	0.099
610.800	-54.986	0.099
610.900	-37.336	0.099
611.000	-38.761	0.099
611.100	-33.882	0.099
611.200	-53.601	0.099
611.300	-54.324	0.099
611.400	-38.781	0.099
611.500	-40.651	0.099
611.600	-51.496	0.099
611.700	-29.421	0.099
611.800	-27.318	0.099
611.900	-41.804	0.099
612.000	-31.917	0.099
612.100	-28.026	0.099
612.200	-42.244	0.099
612.300	-42.336	0.099
612.400	-52.483	0.099
612.500	-47.458	0.099
612.600	-26.170	0.099
612.700	-33.084	0.099
612.800	-27.900	0.099
612.900	-43.117	0.099
613.000	-29.735	0.099
613.100	-33.414	0.099
613.200	-42.858	0.099
613.300	-35.208	0.099
613.400	-58.084	0.099
613.500	-28.724	0.099
613.600	-25.896	0.099
613.700	-30.396	0.099
613.800	-44.298	0.099
613.900	-33.602	0.099
614.000	-34.195	0.099
614.100	-37.497	0.099
614.200	-34.969	0.099
614.300	-43.152	0.099
614.400	-29.279	0.099
614.500	-44.911	0.099
614.600	-23.396	0.099
614.700	-33.533	0.099
614.800	-51.489	0.099
614.900	-24.021	0.099
615.000	-35.622	0.099
615.100	-35.212	0.099
615.200	-49.708	0.099
615.300	-28.571	0.099
615.400	-22.158	0.099
615.500	-27.645	0.099
615.600	-21.457	0.099
615.700	-37.660	0.099
615.800	-46.418	0.099
615.900	-33.497	0.099
616.000	-41.240	0.099
616.100	-66.337	0.099
616.200	-28.543	0.099
616.300	-33.329	0.099
616.400	-25.964	0.099
616.500	-24.916	0.099
616.600	-22.958	0.099
616.700	-43.467	0.099
616.800	-33.004	0.099
616.900	-24.077	0.099
617.000	-21.468	0.099
617.100	-56.482	0.099
617.200	-41.408	0.099
617.300	-45.242	0.099
617.400	-16.159	0.099
617.500	-24.310	0.099
617.600	-43.311	0.099
617.700	-51.781	0.099
617.800	-34.224	0.099
617.900	-25.251	0.099
618.000	-22.736	0.099
618.100	-25.020	0.099
618.200	-44.109	0.099
618.300	-13.201	0.099
618.400	-19.161	0.099
618.500	-38.112	0.099
618.600	-39.893	0.099
618.700	-50.007	0.099
618.800	-30.649	0.099
618.900	-21.539	0.099
619.000	-55.627	0.099
619.100	-45.258	0.099
619.200	-41.110	0.099
619.300	-27.385	0.099
619.400	-28.807	0.099
619.500	-42.091	0.099
619.600	-26.543	0.099
619.700	-49.374	0.099
619.800	-29.623	0.099
619.900	-28.879	0.099
620.000	-33.251	0.099
620.100	-25.934	0.099
620.200	-23.815	0.099
620.300	-21.377	0.099
620.400	-45.104	0.099
620.500	-39.847	0.099
620.600	-39.854	0.099
620.700	-38.742	0.099
620.800	-36.224	0.099
620.900	-47.960	0.099
621.000	-11.905	0.099
621.100	-32.935	0.099
621.200	-30.042	0.099
621.300	-36.729	0.099
621.400	-29.861	0.099
621.500	-45.855	0.099
621.600	-32.774	0.099
621.700	-21.069	0.099
621.800	-45.663	0.099
621.900	-48.543	0.099
622.000	-27.099	0.099
622.100	-37.609	0.099
622.200	-52.199	0.099
622.300	-19.940	0.099
622.400	-34.564	0.099
622.500	-32.315	0.099
622.600	-33.040	0.099
622.700	-47.641	0.099
622.800	-22.532	0.099
622.900	-31.575	0.099
623.000	-25.062	0.099
623.100	-40.390	0.099
623.200	-27.891	0.099
623.300	-36.186	0.099
623.400	-29.124	0.099
623.500	-39.287	0.099
623.600	-41.083	0.099
623.700	-16.194	0.099
623.800	-42.644	0.099
623.900	-31.370	0.099
624.000	-33.565	0.099
624.100	-33.209	0.099
624.200	-37.882	0.099
624.300	-30.951	0.099
624.400	-17.079	0.099
624.500	-22.624	0.099
624.600	-39.495	0.099
624.700	-40.945	0.099
624.800	-19.171	0.099
624.900	-32.142	0.099
625.000	-43.841	0.099
625.100	-25.698	0.099
625.200	-34.493	0.099
625.300	-26.112	0.099
625.400	-21.622	0.099
625.500	-50.054	0.099
625.600	-33.005	0.099
625.700	-46.218	0.099
625.800	-27.992	0.099
625.900	-35.593	0.099
626.000	-39.259	0.099
626.100	-33.389	0.099
626.200	-34.390	0.099
626.300	-52.420	0.099
626.400	-44.923	0.099
626.500	-23.483	0.099
626.600	-33.231	0.099
626.700	-27.714	0.099
626.800	-29.665	0.099
626.900	-18.234	0.099
627.000	-26.892	0.099
627.100	-25.320	0.099
627.200	-25.704	0.099
627.300	-33.358	0.099
627.400	-37.998	0.099
627.500	-32.066	0.099
627.600	-21.476	0.099
627.700	-22.996	0.099
627.800	-55.326	0.099
627.900	-31.734	0.099
628.000	-31.669	0.099
628.100	-24.798	0.099
628.200	-52.111	0.099
628.300	-41.221	0.099
628.400	-23.186	0.099
628.500	-25.475	0.099
628.600	-19.689	0.099
628.700	-24.443	0.099
628.800	-26.791	0.099
628.900	-28.467	0.099
629.000	-50.037	0.099
629.100	-37.181	0.099
629.200	-18.702	0.099
629.300	-39.889	0.099
629.400	-30.936	0.099
629.500	-24.751	0.099
629.600	-52.060	0.099
629.700	-19.770	0.099
629.800	-37.659	0.099
629.900	-38.444	0.099
630.000	-42.957	0.099
630.100	-43.680	0.099
630.200	-52.001	0.099
630.300	-39.610	0.099
630.400	-45.031	0.099
630.500	-13.828	0.099
630.600	-17.657	0.099
630.700	-13.174	0.099
630.800	-38.227	0.099
630.900	-13.583	0.099
631.000	-16.761	0.099
631.100	11.255	0.099
631.200	14.099	0.099
631.300	24.917	0.099
631.400	21.099	0.099
631.500	22.118	0.099
631.600	21.987	0.099
631.700	52.560	0.099
631.800	56.879	0.099
631.900	47.455	0.099
632.000	45.458	0.099
632.100	57.421	0.099
632.200	47.249	0.099
632.300	36.360	0.099
632.400	40.517	0.099
632.500	53.053	0.099
632.600	54.649	0.099
632.700	46.691	0.099
632.800	59.443	0.099
632.900	41.922	0.099
633.000	47.967	0.099
633.100	43.193	0.099
633.200	52.048	0.099
633.300	24.754	0.099
633.400	22.709	0.099
633.500	49.914	0.099
633.600	47.050	0.099
633.700	48.849	0.099
633.800	44.869	0.099
633.900	39.144	0.099
634.000	34.208	0.099
634.100	47.904	0.099
634.200	37.626	0.099
634.300	48.061	0.099
634.400	43.625	0.099
634.500	23.439	0.099
634.600	14.100	0.099
634.700	47.729	0.099
634.800	35.867	0.099
634.900	23.238	0.099
635.000	47.342	0.099
635.100	47.645	0.099
635.200	11.651	0.099
635.300	43.045	0.099
635.400	22.927	0.099
635.500	43.717	0.099
635.600	27.159	0.099
635.700	34.261	0.099
635.800	28.914	0.099
635.900	31.236	0.099
636.000	39.665	0.099
636.100	50.721	0.099
636.200	24.092	0.099
636.300	36.797	0.099
636.400	55.972	0.099
636.500	38.351	0.099
636.600	19.139	0.099
636.700	48.601	0.099
636.800	40.291	0.099
636.900	40.867	0.099
637.000	43.105	0.099
637.100	32.094	0.099
637.200	35.026	0.099
637.300	44.428	0.099
637.400	46.595	0.099
637.500	45.253	0.099
637.600	49.378	0.099
637.700	47.927	0.099
637.800	42.866	0.099
637.900	32.550	0.099
638.000	48.964	0.099
638.100	70.212	0.099
638.200	67.287	0.099
638.300	50.288	0.099
638.400	47.224	0.099
638.500	46.918	0.099
638.600	70.573	0.099
638.700	54.268	0.099
638.800	79.404	0.099
638.900	56.464	0.099
639.000	65.640	0.099
639.100	53.884	0.099
639.200	58.330	0.099
639.300	52.120	0.099
639.400	54.967	0.099
639.500	62.434	0.099
639.600	76.159	0.099
639.700	70.738	0.099
639.800	69.350	0.099
639.900	65.476	0.099
640.000	63.842	0.099
640.100	83.731	0.099
640.200	85.604	0.099
640.300	75.665	0.099
640.400	87.874	0.099
640.500	76.543	0.099
640.600	81.878	0.099
640.700	78.868	0.099
640.800	86.291	0.099
640.900	101.783	0.099
641.000	84.011	0.099
641.100	106.542	0.099
641.200	92.526	0.099
641.300	78.371	0.099
641.400	94.227	0.099
641.500	105.603	0.099
641.600	69.153	0.099
641.700	100.444	0.099
641.800	92.369	0.099
641.900	96.863	0.099
642.000	92.931	0.099
642.100	93.943	0.099
642.200	109.324	0.099
642.300	109.680	0.099
642.400	100.712	0.099
642.500	119.552	0.099
642.600	96.513	0.099
642.700	97.307	0.099
642.800	117.163	0.099
642.900	105.475	0.099
643.000	102.301	0.099
643.100	112.229	0.099
643.200	129.735	0.099
643.300	107.806	0.099
643.400	131.984	0.099
643.500	104.486	0.099
643.600	113.554	0.099
643.700	100.880	0.099
643.800	132.083	0.099
643.900	118.149	0.099
644.000	114.128	0.099
644.100	118.006	0.099
644.200	114.032	0.099
644.300	124.749	0.099
644.400	123.800	0.099
644.500	113.300	0.099
644.600	131.004	0.099
644.700	118.984	0.099
644.800	130.102	0.099
644.900	132.309	0.099
645.000	122.841	0.099
645.100	106.753	0.099
645.200	108.741	0.099
645.300	132.321	0.099
645.400	136.146	0.099
645.500	112.972	0.099
645.600	106.224	0.099
645.700	128.756	0.099
645.800	124.641	0.099
645.900	124.312	0.099
646.000	124.033	0.099
646.100	137.056	0.099
646.200	113.730	0.099
646.300	127.840	0.099
646.400	99.434	0.099
646.500	113.076	0.099
646.600	141.163	0.099
646.700	127.934	0.099
646.800	111.895	0.099
646.900	115.840	0.099
647.000	116.276	0.099
647.100	121.479	0.099
647.200	117.509	0.099
647.300	106.378	0.099
647.400	124.312	0.099
647.500	115.172	0.099
647.600	116.093	0.099
647.700	116.815	0.099
647.800	129.336	0.099
647.900	118.817	0.099
648.000	114.200	0.099
648.100	138.913	0.099
648.200	125.089	0.099
648.300	106.326	0.099
648.400	119.671	0.099
648.500	99.135	0.099
648.600	109.643	0.099
648.700	119.075	0.099
648.800	115.629	0.099
648.900	107.097	0.099
649.000	125.911	0.099
649.100	122.061	0.099
649.200	108.249	0.099
649.300	111.139	0.099
649.400	115.099	0.099
649.500	121.679	0.099
649.600	116.391	0.099
649.700	111.564	0.099
649.800	100.254	0.099
649.900	101.150	0.099
650.000	120.221	0.099
650.100	117.564	0.099
650.200	112.952	0.099
650.300	120.398	0.099
650.400	97.709	0.099
650.500	112.101	0.099
650.600	118.792	0.099
650.700	105.980	0.099
650.800	99.015	0.099
650.900	101.967	0.099
651.000	115.149	0.099
651.100	111.349	0.099
651.200	104.480	0.099
651.300	99.152	0.099
651.400	123.175	0.099
651.500	122.573	0.099
651.600	99.747	0.099
651.700	109.559	0.099
651.800	97.426	0.099
651.900	101.231	0.099
652.000	103.822	0.099
652.100	92.336	0.099
652.200	104.656	0.099
652.300	111.603	0.099
652.400	108.504	0.099
652.500	105.303	0.099
652.600	104.362	0.099
652.700	95.111	0.099
652.800	119.032	0.099
652.900	110.877	0.099
653.000	100.123	0.099
653.100	110.018	0.099
653.200	112.297	0.099
653.300	95.746	0.099
653.400	92.767	0.099
653.500	118.468	0.099
653.600	109.231	0.099
653.700	88.257	0.099
653.800	110.420	0.099
653.900	96.275	0.099
654.000	120.465	0.099
654.100	96.637	0.099
654.200	104.204	0.099
654.300	103.757	0.099
654.400	104.429	0.099
654.500	110.157	0.099
654.600	116.202	0.099
654.700	113.346	0.099
654.800	94.298	0.099
654.900	138.344	0.099
655.000	97.055	0.099
655.100	101.861	0.099
655.200	99.471	0.099
655.300	123.338	0.099
655.400	103.120	0.099
655.500	82.787	0.099
655.600	101.917	0.099
655.700	121.467	0.099
655.800	99.657	0.099
655.900	91.085	0.099
656.000	106.920	0.099
656.100	111.119	0.099
656.200	111.823	0.099
656.300	87.395	0.099
656.400	89.280	0.099
656.500	94.602	0.099
656.600	130.404	0.099
656.700	108.550	0.099
656.800	106.280	0.099
656.900	111.008	0.099
657.000	79.306	0.099
657.100	122.218	0.099
657.200	97.153	0.099
657.300	100.781	0.099
657.400	80.247	0.099
657.500	105.075	0.099
657.600	88.383	0.099
657.700	117.697	0.099
657.800	107.167	0.099
657.900	104.187	0.099
658.000	125.755	0.099
658.100	106.558	0.099
658.200	92.912	0.099
658.300	70.993	0.099
658.400	112.980	0.099
658.500	97.718	0.099
658.600	114.909	0.099
658.700	115.501	0.099
658.800	85.686	0.099
658.900	126.811	0.099
659.000	98.098	0.099
659.100	100.821	0.099
659.200	109.577	0.099
659.300	85.682	0.099
659.400	87.814	0.099
659.500	122.080	0.099
659.600	101.170	0.099
659.700	121.231	0.099
659.800	77.460	0.099
659.900	102.164	0.099
660.000	102.564	0.099
660.100	101.554	0.099
660.200	98.616	0.099
660.300	108.430	0.099
660.400	112.954	0.099
660.500	93.399	0.099
660.600	101.133	0.099
660.700	97.261	0.099
660.800	117.798	0.099
660.900	90.627	0.099
661.000	97.930	0.099
661.100	89.666	0.099
661.200	106.730	0.099
661.300	117.199	0.099
661.400	110.138	0.099
661.500	97.280	0.099
661.600	91.374	0.099
661.700	93.494	0.099
661.800	91.299	0.099
661.900	115.312	0.099
662.000	83.900	0.099
662.100	82.574	0.099
662.200	110.959	0.099
662.300	117.947	0.099
662.400	106.185	0.099
662.500	96.581	0.099
662.600	111.777	0.099
662.700	100.801	0.099
662.800	107.222	0.099
662.900	100.173	0.099
663.000	102.634	0.099
663.100	114.148	0.099
663.200	105.416	0.099
663.300	102.593	0.099
663.400	106.825	0.099
663.500	109.214	0.099
663.600	101.978	0.099
663.700	87.574	0.099
663.800	83.675	0.099
663.900	82.310	0.099
664.000	87.748	0.099
664.100	105.772	0.099
664.200	101.747	0.099
664.300	87.912	0.099
664.400	113.146	0.099
664.500	107.389	0.099
664.600	83.820	0.099
664.700	102.764	0.099
664.800	97.432	0.099
664.900	100.216	0.099
665.000	77.660	0.099
665.100	103.597	0.099
665.200	115.501	0.099
665.300	93.275	0.099
665.400	112.200	0.099
665.500	100.885	0.099
665.600	94.929	0.099
665.700	103.843	0.099
665.800	99.441	0.099
665.900	97.814	0.099
666.000	96.507	0.099
666.100	98.240	0.099
666.200	100.926	0.099
666.300	99.422	0.099
666.400	92.424	0.099
666.500	94.448	0.099
666.600	104.830	0.099
666.700	102.527	0.099
666.800	99.387	0.099
666.900	82.011	0.099
667.000	88.717	0.099
667.100	99.145	0.099
667.200	97.677	0.099
667.300	89.663	0.099
667.400	112.034	0.099
667.500	109.514	0.099
667.600	99.845	0.099
667.700	110.522	0.099
667.800	93.656	0.099
667.900	109.355	0.099
668.000	61.356	0.099
668.100	91.044	0.099
668.200	106.905	0.099
668.300	105.735	0.099
668.400	97.450	0.099
668.500	99.651	0.099
668.600	87.631	0.099
668.700	105.261	0.099
668.800	87.094	0.099
668.900	112.389	0.099
669.000	90.487	0.099
669.100	104.683	0.099
669.200	89.432	0.099
669.300	99.075	0.099
669.400	96.510	0.099
669.500	99.137	0.099
669.600	92.411	0.099
669.700	100.152	0.099
669.800	99.494	0.099
669.900	91.382	0.099
670.000	98.955	0.099
670.100	99.271	0.099
670.200	99.856	0.099
670.300	109.943	0.099
670.400	92.167	0.099
670.500	109.515	0.099
670.600	102.809	0.099
670.700	83.774	0.099
670.800	98.568	0.099
670.900	91.342	0.099
671.000	100.612	0.099
671.100	99.594	0.099
671.200	87.180	0.099
671.300	108.344	0.099
671.400	96.503	0.099
671.500	70.827	0.099
671.600	110.583	0.099
671.700	111.816	0.099
671.800	97.888	0.099
671.900	99.533	0.099
672.000	86.188	0.099
672.100	106.983	0.099
672.200	96.059	0.099
672.300	73.789	0.099
672.400	108.617	0.099
672.500	92.379	0.099
672.600	94.058	0.099
672.700	79.978	0.099
672.800	98.142	0.099
672.900	95.375	0.099
673.000	99.999	0.099
673.100	91.847	0.099
673.200	97.904	0.099
673.300	102.024	0.099
673.400	104.251	0.099
673.500	94.024	0.099
673.600	103.035	0.099
673.700	101.656	0.099
673.800	93.490	0.099
673.900	106.382	0.099
674.000	85.726	0.099
674.100	100.114	0.099
674.200	94.398	0.099
674.300	100.407	0.099
674.400	96.482	0.099
674.500	122.634	0.099
674.600	88.678	0.099
674.700	102.194	0.099
674.800	98.290	0.099
674.900	73.074	0.099
675.000	86.712	0.099
675.100	92.158	0.099
675.200	100.914	0.099
675.300	113.258	0.099
675.400	88.944	0.099
675.500	87.694	0.099
675.600	96.117	0.099
675.700	96.917	0.099
675.800	106.437	0.099
675.900	101.599	0.099
676.000	80.014	0.099
676.100	103.408	0.099
676.200	65.803	0.099
676.300	111.960	0.099
676.400	88.630	0.099
676.500	96.303	0.099
676.600	121.423	0.099
676.700	87.963	0.099
676.800	104.062	0.099
676.900	92.805	0.099
677.000	87.175	0.099
677.100	108.900	0.099
677.200	98.634	0.099
677.300	83.941	0.099
677.400	99.154	0.099
677.500	108.460	0.099
677.600	106.136	0.099
677.700	89.514	0.099
677.800	84.251	0.099
677.900	91.137	0.099
678.000	99.711	0.099
678.100	86.471	0.099
678.200	103.685	0.099
678.300	100.258	0.099
678.400	68.254	0.099
678.500	84.496	0.099
678.600	113.128	0.099
678.700	81.933	0.099
678.800	119.350	0.099
678.900	92.864	0.099
679.000	102.665	0.099
679.100	86.135	0.099
679.200	88.817	0.099
679.300	97.612	0.099
679.400	98.362	0.099
679.500	97.986	0.099
679.600	101.464	0.099
679.700	103.831	0.099
679.800	91.358	0.099
679.900	95.274	0.099
680.000	104.311	0.099
680.100	91.795	0.099
680.200	99.949	0.099
680.300	92.028	0.099
680.400	91.442	0.099
680.500	114.369	0.099
680.600	84.289	0.099
680.700	75.755	0.099
680.800	81.952	0.099
680.900	125.736	0.099
681.000	90.957	0.099
681.100	88.279	0.099
681.200	90.308	0.099
681.300	75.078	0.099
681.400	104.107	0.099
681.500	107.787	0.099
681.600	97.070	0.099
681.700	104.892	0.099
681.800	103.449	0.099
681.900	81.030	0.099
682.000	98.439	0.099
682.100	96.626	0.099
682.200	106.850	0.099
682.300	90.803	0.099
682.400	81.865	0.099
682.500	104.232	0.099
682.600	105.999	0.099
682.700	94.046	0.099
682.800	77.016	0.099
682.900	84.712	0.099
683.000	89.728	0.099
683.100	122.118	0.099
683.200	101.826	0.099
683.300	94.991	0.099
683.400	82.199	0.099
683.500	109.056	0.099
683.600	79.047	0.099
683.700	69.008	0.099
683.800	112.699	0.099
683.900	110.575	0.099
684.000	84.808	0.099
684.100	85.331	0.099
684.200	87.365	0.099
684.300	108.773	0.099
684.400	101.181	0.099
684.500	106.938	0.099
684.600	88.178	0.099
684.700	96.362	0.099
684.800	87.374	0.099
684.900	76.193	0.099
685.000	85.145	0.099
685.100	98.064	0.099
685.200	105.272	0.099
685.300	107.266	0.099
685.400	78.835	0.099
685.500	86.757	0.099
685.600	115.549	0.099
685.700	94.780	0.099
685.800	89.282	0.099
685.900	103.667	0.099
686.000	85.007	0.099
686.100	97.767	0.099
686.200	84.712	0.099
686.300	105.032	0.099
686.400	86.798	0.099
686.500	101.929	0.099
686.600	107.552	0.099
686.700	96.387	0.099
686.800	103.485	0.099
686.900	64.274	0.099
687.000	100.791	0.099
687.100	111.820	0.099
687.200	91.297	0.099
687.300	90.551	0.099
687.400	100.279	0.099
687.500	100.900	0.099
687.600	88.715	0.099
687.700	76.697	0.099
687.800	107.418	0.099
687.900	96.892	0.099
688.000	85.968	0.099
688.100	90.467	0.099
688.200	107.452	0.099
688.300	101.243	0.099
688.400	80.629	0.099
688.500	101.581	0.099
688.600	86.589	0.099
688.700	97.632	0.099
688.800	96.762	0.099
688.900	98.572	0.099
689.000	101.523	0.099
689.100	95.688	0.099
689.200	101.390	0.099
689.300	85.416	0.099
689.400	104.282	0.099
689.500	97.285	0.099
689.600	85.032	0.099
689.700	97.053	0.099
689.800	89.392	0.099
689.900	83.719	0.099
690.000	101.428	0.099
690.100	96.065	0.099
690.200	95.798	0.099
690.300	84.364	0.099
690.400	90.007	0.099
690.500	80.515	0.099
690.600	94.481	0.099
690.700	73.025	0.099
690.800	85.155	0.099
690.900	67.956	0.099
691.000	38.578	0.099
691.100	36.546	0.099
691.200	37.192	0.099
691.300	14.442	0.099
691.400	31.284	0.099
691.500	38.428	0.099
691.600	6.144	0.099
691.700	0.984	0.099
691.800	-1.154	0.099
691.900	4.183	0.099
692.000	-35.694	0.099
692.100	10.827	0.099
692.200	-9.470	0.099
692.300	-2.357	0.099
692.400	-7.878	0.099
692.500	-0.098	0.099
692.600	-24.101	0.099
692.700	-43.742	0.099
692.800	-16.278	0.099
692.900	-27.266	0.099
693.000	-28.853	0.099
693.100	-32.771	0.099
693.200	-34.553	0.099
693.300	-37.914	0.099
693.400	-54.650	0.099
693.500	-21.467	0.099
693.600	-36.883	0.099
693.700	-32.915	0.099
693.800	-31.225	0.099
693.900	-44.603	0.099
694.000	-42.577	0.099
694.100	-27.900	0.099
694.200	-27.723	0.099
694.300	-36.050	0.099
694.400	-34.908	0.099
694.500	-33.067	0.099
694.600	-42.839	0.099
694.700	-24.989	0.099
694.800	-39.389	0.099
694.900	-35.085	0.099
695.000	-38.010	0.099
695.100	-43.146	0.099
695.200	-33.211	0.099
695.300	-61.110	0.099
695.400	-38.413	0.099
695.500	-39.152	0.099
695.600	-38.786	0.099
695.700	-33.770	0.099
695.800	-47.293	0.099
695.900	-29.596	0.099
696.000	-24.881	0.099
696.100	-25.079	0.099
696.200	-39.560	0.099
696.300	-39.662	0.099
696.400	-56.390	0.099
696.500	-34.540	0.099
696.600	-24.817	0.099
696.700	-20.321	0.099
696.800	-33.795	0.099
696.900	-43.538	0.099
697.000	-17.896	0.099
697.100	-35.503	0.099
697.200	-45.625	0.099
697.300	-38.783	0.099
697.400	-30.610	0.099
697.500	-42.122	0.099
697.600	-44.892	0.099
697.700	-37.947	0.099
697.800	-42.049	0.099
697.900	-21.438	0.099
698.000	-30.377	0.099
698.100	-41.896	0.099
698.200	-38.807	0.099
698.300	-41.706	0.099
698.400	-48.745	0.099
698.500	-53.757	0.099
698.600	-31.669	0.099
698.700	-19.506	0.099
698.800	-36.432	0.099
698.900	-32.873	0.099
699.000	-22.003	0.099
699.100	-36.314	0.099
699.200	-51.155	0.099
699.300	-29.958	0.099
699.400	-29.582	0.099
699.500	-40.745	0.099
699.600	-49.696	0.099
699.700	-33.920	0.099
699.800	-25.402	0.099
699.900	-40.629	0.099
700.000	-49.406	0.099
700.100	-40.776	0.099
700.200	-55.315	0.099
700.300	-27.473	0.099
700.400	-18.512	0.099
700.500	-33.127	0.099
700.600	-47.109	0.099
700.700	-38.966	0.099
700.800	-31.933	0.099
700.900	-21.183	0.099
701.000	-54.191	0.099
701.100	-38.953	0.099
701.200	-38.662	0.099
701.300	-50.475	0.099
701.400	-34.262	0.099
701.500	-23.816	0.099
701.600	-45.061	0.099
701.700	-35.089	0.099
701.800	-42.805	0.099
701.900	-32.965	0.099
702.000	-42.653	0.099
702.100	-42.792	0.099
702.200	-41.069	0.099
702.300	-46.122	0.099
702.400	-30.294	0.099
702.500	-46.013	0.099
702.600	-39.106	0.099
702.700	-38.141	0.099
702.800	-51.278	0.099
702.900	-35.333	0.099
703.000	-49.370	0.099
703.100	-33.079	0.099
703.200	-52.956	0.099
703.300	-38.517	0.099
703.400	-44.624	0.099
703.500	-29.256	0.099
703.600	-43.836	0.099
703.700	-28.075	0.099
703.800	-53.447	0.099
703.900	-43.034	0.099
704.000	-43.093	0.099
704.100	-33.144	0.099
704.200	-38.536	0.099
704.300	-44.296	0.099
704.400	-44.782	0.099
704.500	-41.302	0.099
704.600	-55.740	0.099
704.700	-31.764	0.099
704.800	-56.474	0.099
704.900	-41.661	0.099
705.000	-36.914	0.099
705.100	-36.009	0.099
705.200	-61.191	0.099
705.300	-46.507	0.099
705.400	-41.069	0.099
705.500	-51.040	0.099
705.600	-36.705	0.099
705.700	-44.910	0.099
705.800	-32.617	0.099
705.900	-45.960	0.099
706.000	-37.062	0.099
706.100	-45.883	0.099
706.200	-42.517	0.099
706.300	-49.590	0.099
706.400	-71.870	0.099
706.500	-58.564	0.099
706.600	-40.883	0.099
706.700	-42.049	0.099
706.800	-34.290	0.099
706.900	-47.265	0.099
707.000	-49.489	0.099
707.100	-54.644	0.099
707.200	-41.315	0.099
707.300	-46.348	0.099
707.400	-42.376	0.099
707.500	-38.548	0.099
707.600	-39.205	0.099
707.700	-63.033	0.099
707.800	-56.604	0.099
707.900	-45.408	0.099
708.000	-50.046	0.099
708.100	-36.510	0.099
708.200	-45.400	0.099
708.300	-47.606	0.099
708.400	-71.329	0.099
708.500	-49.284	0.099
708.600	-37.025	0.099
708.700	-53.096	0.099
708.800	-55.198	0.099
708.900	-35.025	0.099
709.000	-37.681	0.099
709.100	-36.434	0.099
709.200	-45.550	0.099
709.300	-49.735	0.099
709.400	-35.537	0.099
709.500	-60.912	0.099
709.600	-39.360	0.099
709.700	-54.454	0.099
709.800	-43.406	0.099
709.900	-51.374	0.099
710.000	-56.493	0.099
710.100	-54.719	0.099
710.200	-56.497	0.099
710.300	-58.457	0.099
710.400	-41.923	0.099
710.500	-49.739	0.099
710.600	-52.422	0.099
710.700	-62.114	0.099
710.800	-48.695	0.099
710.900	-40.431	0.099
711.000	-54.004	0.099
711.100	-36.996	0.099
711.200	-49.135	0.099
711.300	-58.482	0.099
711.400	-57.170	0.099
711.500	-48.141	0.099
711.600	-43.679	0.099
711.700	-53.835	0.099
711.800	-54.129	0.099
711.900	-64.777	0.099
712.000	-60.202	0.099
712.100	-57.682	0.099
712.200	-58.869	0.099
712.300	-54.503	0.099
712.400	-46.913	0.099
712.500	-52.402	0.099
712.600	-49.494	0.099
712.700	-34.836	0.099
712.800	-24.789	0.099
712.900	-53.889	0.099
713.000	-63.863	0.099
713.100	-59.548	0.099
713.200	-56.798	0.099
713.300	-55.449	0.099
713.400	-47.845	0.099
713.500	-54.010	0.099
713.600	-37.026	0.099
713.700	-59.489	0.099
713.800	-55.374	0.099
713.900	-66.607	0.099
714.000	-48.113	0.099
714.100	-65.302	0.099
714.200	-47.860	0.099
714.300	-63.661	0.099
714.400	-46.494	0.099
714.500	-75.736	0.099
714.600	-41.296	0.099
714.700	-28.750	0.099
714.800	-50.239	0.099
714.900	-54.304	0.099
715.000	-57.340	0.099
715.100	-48.482	0.099
715.200	-60.169	0.099
715.300	-52.586	0.099
715.400	-52.468	0.099
715.500	-53.871	0.099
715.600	-64.712	0.099
715.700	-56.365	0.099
715.800	-60.225	0.099
715.900	-55.053	0.099
716.000	-56.536	0.099
716.100	-49.364	0.099
716.200	-36.089	0.099
716.300	-60.219	0.099
716.400	-61.703	0.099
716.500	-54.614	0.099
716.600	-61.111	0.099
716.700	-53.488	0.099
716.800	-66.851	0.099
716.900	-61.585	0.099
717.000	-75.308	0.099
717.100	-48.331	0.099
717.200	-61.926	0.099
717.300	-67.352	0.099
717.400	-49.093	0.099
717.500	-59.587	0.099
717.600	-51.882	0.099
717.700	-55.397	0.099
717.800	-45.524	0.099
717.900	-50.812	0.099
718.000	-78.357	0.099
718.100	-48.518	0.099
718.200	-55.395	0.099
718.300	-51.950	0.099
718.400	-59.871	0.099
718.500	-56.514	0.099
718.600	-69.422	0.099
718.700	-65.605	0.099
718.800	-50.319	0.099
718.900	-46.452	0.099
719.000	-58.018	0.099
719.100	-60.337	0.099
719.200	-59.636	0.099
719.300	-75.369	0.099
719.400	-44.994	0.099
719.500	-52.619	0.099
719.600	-51.484	0.099
719.700	-60.072	0.099
719.800	-67.387	0.099
719.900	-57.873	0.099
720.000	-63.962	0.099
720.100	-44.495	0.099
720.200	-58.143	0.099
720.300	-60.824	0.099
720.400	-71.185	0.099
720.500	-59.125	0.099
720.600	-69.425	0.099
720.700	-45.481	0.099
720.800	-63.871	0.099
720.900	-63.725	0.099
721.000	-71.293	0.099
721.100	-66.224	0.099
721.200	-58.219	0.099
721.300	-63.696	0.099
721.400	-57.912	0.099
721.500	-56.322	0.099
721.600	-72.043	0.099
721.700	-50.370	0.099
721.800	-63.336	0.099
721.900	-56.153	0.099
722.000	-65.741	0.099
722.100	-47.469	0.099
722.200	-72.975	0.099
722.300	-55.633	0.099
722.400	-55.798	0.099
722.500	-66.735	0.099
722.600	-67.671	0.099
722.700	-33.624	0.099
722.800	-57.868	0.099
722.900	-76.955	0.099
723.000	-94.476	0.099
723.100	-68.866	0.099
723.200	-58.633	0.099
723.300	-52.919	0.099
723.400	-85.818	0.099
723.500	-52.971	0.099
723.600	-54.998	0.099
723.700	-60.141	0.099
723.800	-51.647	0.099
723.900	-73.292	0.099
724.000	-59.632	0.099
724.100	-51.034	0.099
724.200	-53.069	0.099
724.300	-70.889	0.099
724.400	-80.017	0.099
724.500	-56.397	0.099
724.600	-46.167	0.099
724.700	-71.427	0.099
724.800	-52.062	0.099
724.900	-80.658	0.099
725.000	-65.194	0.099
725.100	-37.793	0.099
725.200	-60.466	0.099
725.300	-54.100	0.099
725.400	-73.428	0.099
725.500	-56.774	0.099
725.600	-50.754	0.099
725.700	-59.519	0.099
725.800	-53.184	0.099
725.900	-62.765	0.099
726.000	-50.750	0.099
726.100	-82.234	0.099
726.200	-67.450	0.099
726.300	-71.725	0.099
726.400	-55.180	0.099
726.500	-50.945	0.099
726.600	-61.923	0.099
726.700	-66.934	0.099
726.800	-68.368	0.099
726.900	-73.867	0.099
727.000	-54.576	0.099
727.100	-53.269	0.099
727.200	-57.205	0.099
727.300	-67.128	0.099
727.400	-55.205	0.099
727.500	-53.071	0.099
727.600	-40.947	0.099
727.700	-63.236	0.099
727.800	-62.579	0.099
727.900	-49.830	0.099
728.000	-59.465	0.099
728.100	-54.069	0.099
728.200	-56.994	0.099
728.300	-46.819	0.099
728.400	-63.402	0.099
728.500	-58.240	0.099
728.600	-61.896	0.099
728.700	-60.293	0.099
728.800	-70.053	0.099
728.900	-54.831	0.099
729.000	-56.591	0.099
729.100	-59.744	0.099
729.200	-57.696	0.099
729.300	-66.475	0.099
729.400	-49.119	0.099
729.500	-52.112	0.099
729.600	-86.980	0.099
729.700	-40.761	0.099
729.800	-63.282	0.099
729.900	-41.368	0.099
730.000	-40.675	0.099
730.100	-68.929	0.099
730.200	-65.466	0.099
730.300	-66.765	0.099
730.400	-65.832	0.099
730.500	-63.555	0.099
730.600	-49.762	0.099
730.700	-64.896	0.099
730.800	-57.520	0.099
730.900	-39.111	0.099
731.000	-54.945	0.099
731.100	-51.393	0.099
731.200	-41.722	0.099
731.300	-57.439	0.099
731.400	-45.571	0.099
731.500	-63.916	0.099
731.600	-25.583	0.099
731.700	-70.351	0.099
731.800	-57.534	0.099
731.900	-50.152	0.099
732.000	-42.352	0.099
732.100	-75.659	0.099
732.200	-54.570	0.099
732.300	-70.924	0.099
732.400	-46.698	0.099
732.500	-62.028	0.099
732.600	-34.192	0.099
732.700	-58.440	0.099
732.800	-23.330	0.099
732.900	-54.373	0.099
733.000	-52.149	0.099
733.100	-44.327	0.099
733.200	-64.866	0.099
733.300	-45.867	0.099
733.400	-50.335	0.099
733.500	-49.252	0.099
733.600	-53.671	0.099
733.700	-52.328	0.099
733.800	-56.248	0.099
733.900	-46.058	0.099
734.000	-54.201	0.099
734.100	-65.298	0.099
734.200	-54.716	0.099
734.300	-49.306	0.099
734.400	-55.675	0.099
734.500	-43.398	0.099
734.600	-37.435	0.099
734.700	-48.327	0.099
734.800	-56.334	0.099
734.900	-54.116	0.099
735.000	-71.754	0.099
735.100	-55.358	0.099
735.200	-54.348	0.099
735.300	-58.505	0.099
735.400	-54.454	0.099
735.500	-47.625	0.099
735.600	-56.182	0.099
735.700	-63.248	0.099
735.800	-49.458	0.099
735.900	-73.276	0.099
736.000	-52.304	0.099
736.100	-40.541	0.099
736.200	-59.029	0.099
736.300	-49.434	0.099
736.400	-41.795	0.099
736.500	-55.904	0.099
736.600	-50.485	0.099
736.700	-76.240	0.099
736.800	-68.763	0.099
736.900	-56.692	0.099
737.000	-56.614	0.099
737.100	-50.451	0.099
737.200	-35.719	0.099
737.300	-50.664	0.099
737.400	-24.765	0.099
737.500	-41.905	0.099
737.600	-45.221	0.099
737.700	-51.379	0.099
737.800	-56.576	0.099
737.900	-49.488	0.099
738.000	-49.449	0.099
738.100	-55.240	0.099
738.200	-53.767	0.099
738.300	-44.984	0.099
738.400	-38.279	0.099
738.500	-54.213	0.099
738.600	-55.491	0.099
738.700	-51.298	0.099
738.800	-43.238	0.099
738.900	-52.706	0.099
739.000	-40.886	0.099
739.100	-51.862	0.099
739.200	-62.239	0.099
739.300	-76.448	0.099
739.400	-22.372	0.099
739.500	-63.682	0.099
739.600	-49.235	0.099
739.700	-57.396	0.099
739.800	-65.143	0.099
739.900	-46.648	0.099
740.000	-31.110	0.099
740.100	-61.501	0.099
740.200	-54.151	0.099
740.300	-45.084	0.099
740.400	-62.826	0.099
740.500	-42.390	0.099
740.600	-45.872	0.099
740.700	-59.021	0.099
740.800	-58.324	0.099
740.900	-49.791	0.099
741.000	-46.396	0.099
741.100	-71.699	0.099
741.200	-59.404	0.099
741.300	-61.819	0.099
741.400	-55.406	0.099
741.500	-50.540	0.099
741.600	-31.952	0.099
741.700	-34.613	0.099
741.800	-44.229	0.099
741.900	-52.766	0.099
742.000	-54.709	0.099
742.100	-49.756	0.099
742.200	-79.373	0.099
742.300	-42.661	0.099
742.400	-45.234	0.099
742.500	-40.741	0.099
742.600	-51.048	0.099
742.700	-58.207	0.099
742.800	-46.350	0.099
742.900	-55.108	0.099
743.000	-42.108	0.099
743.100	-55.721	0.099
743.200	-39.004	0.099
743.300	-51.155	0.099
743.400	-27.104	0.099
743.500	-45.931	0.099
743.600	-73.256	0.099
743.700	-38.996	0.099
743.800	-54.527	0.099
743.900	-69.605	0.099
744.000	-42.484	0.099
744.100	-31.133	0.099
744.200	-43.920	0.099
744.300	-28.612	0.099
744.400	-49.824	0.099
744.500	-54.964	0.099
744.600	-39.727	0.099
744.700	-59.178	0.099
744.800	-40.396	0.099
744.900	-52.738	0.099
745.000	-48.410	0.099
745.100	-50.552	0.099
745.200	-49.398	0.099
745.300	-49.345	0.099
745.400	-52.537	0.099
745.500	-48.856	0.099
745.600	-39.202	0.099
745.700	-37.760	0.099
745.800	-60.607	0.099
745.900	-45.819	0.099
746.000	-22.343	0.099
746.100	-38.026	0.099
746.200	-39.538	0.099
746.300	-42.380	0.099
746.400	-57.113	0.099
746.500	-71.813	0.099
746.600	-47.793	0.099
746.700	-54.684	0.099
746.800	-60.063	0.099
746.900	-32.971	0.099
747.000	-47.645	0.099
747.100	-55.250	0.099
747.200	-32.426	0.099
747.300	-55.014	0.099
747.400	-50.983	0.099
747.500	-50.881	0.099
747.600	-55.683	0.099
747.700	-56.816	0.099
747.800	-49.734	0.099
747.900	-39.984	0.099
748.000	-48.511	0.099
748.100	-54.822	0.099
748.200	-51.988	0.099
748.300	-42.815	0.099
748.400	-48.077	0.099
748.500	-61.163	0.099
748.600	-57.534	0.099
748.700	-32.243	0.099
748.800	-30.535	0.099
748.900	-38.419	0.099
749.000	-42.534	0.099
749.100	-58.998	0.099
749.200	-46.248	0.099
749.300	-54.597	0.099
749.400	-43.149	0.099
749.500	-42.529	0.099
749.600	-53.535	0.099
749.700	-47.642	0.099
749.800	-55.871	0.099
749.900	-55.674	0.099
750.000	-41.290	0.099
750.100	-43.038	0.099
750.200	-49.944	0.099
750.300	-58.998	0.099
750.400	-16.102	0.099
750.500	-37.985	0.099
750.600	-33.956	0.099
750.700	-51.094	0.099
750.800	-37.841	0.099
750.900	-42.675	0.099
751.000	-40.138	0.099
751.100	-58.388	0.099
751.200	-38.537	0.099
751.300	-73.166	0.099
751.400	-50.834	0.099
751.500	-38.897	0.099
751.600	-49.952	0.099
751.700	-32.737	0.099
751.800	-38.795	0.099
751.900	-38.044	0.099
752.000	-49.303	0.099
752.100	-41.002	0.099
752.200	-75.079	0.099
752.300	-41.305	0.099
752.400	-41.350	0.099
752.500	-53.331	0.099
752.600	-44.974	0.099
752.700	-47.370	0.099
752.800	-54.178	0.099
752.900	-42.749	0.099
753.000	-56.695	0.099
753.100	-38.980	0.099
753.200	-35.754	0.099
753.300	-50.619	0.099
753.400	-45.953	0.099
753.500	-28.112	0.099
753.600	-74.089	0.099
753.700	-34.241	0.099
753.800	-53.366	0.099
753.900	-42.729	0.099
754.000	-64.189	0.099
754.100	-48.144	0.099
754.200	-49.592	0.099
754.300	-46.299	0.099
754.400	-32.597	0.099
754.500	-30.917	0.099
754.600	-32.736	0.099
754.700	-49.428	0.099
754.800	-43.342	0.099
754.900	-44.635	0.099
755.000	-61.063	0.099
755.100	-57.761	0.099
755.200	-39.964	0.099
755.300	-57.028	0.099
755.400	-59.872	0.099
755.500	-46.760	0.099
755.600	-42.841	0.099
755.700	-27.024	0.099
755.800	-36.944	0.099
755.900	-42.342	0.099
756.000	-49.560	0.099
756.100	-59.256	0.099
756.200	-39.320	0.099
756.300	-46.841	0.099
756.400	-41.530	0.099
756.500	-25.957	0.099
756.600	-29.049	0.099
756.700	-43.382	0.099
756.800	-44.840	0.099
756.900	-47.092	0.099
757.000	-37.807	0.099
757.100	-44.880	0.099
757.200	-36.560	0.099
757.300	-32.174	0.099
757.400	-44.826	0.099
757.500	-51.637	0.099
757.600	-52.590	0.099
757.700	-29.774	0.099
757.800	-52.464	0.099
757.900	-28.427	0.099
758.000	-41.869	0.099
758.100	-38.559	0.099
758.200	-36.326	0.099
758.300	-60.586	0.099
758.400	-41.511	0.099
758.500	-44.506	0.099
758.600	-49.638	0.099
758.700	-44.208	0.099
758.800	-34.455	0.099
758.900	-40.252	0.099
759.000	-41.888	0.099
759.100	-42.510	0.099
759.200	-39.615	0.099
759.300	-44.499	0.099
759.400	-49.474	0.099
759.500	-21.869	0.099
759.600	-45.552	0.099
759.700	-27.508	0.099
759.800	-49.877	0.099
759.900	-54.330	0.099
760.000	-37.407	0.099
760.100	-32.751	0.099
760.200	-40.043	0.099
760.300	-52.785	0.099
760.400	-44.225	0.099
760.500	-47.736	0.099
760.600	-33.696	0.099
760.700	-45.002	0.099
760.800	-40.725	0.099
760.900	-29.065	0.099
761.000	-28.338	0.099
761.100	-54.358	0.099
761.200	-49.543	0.099
761.300	-48.227	0.099
761.400	-33.748	0.099
761.500	-34.577	0.099
761.600	-44.103	0.099
761.700	-48.229	0.099
761.800	-60.793	0.099
761.900	-42.920	0.099
762.000	-19.484	0.099
762.100	-28.633	0.099
762.200	-18.549	0.099
762.300	-51.430	0.099
762.400	-44.528	0.099
762.500	-34.383	0.099
762.600	-39.314	0.099
762.700	-45.159	0.099
762.800	-37.880	0.099
762.900	-33.240	0.099
763.000	-54.414	0.099
763.100	-45.992	0.099
763.200	-45.948	0.099
763.300	-15.602	0.099
763.400	-55.934	0.099
763.500	-34.222	0.099
763.600	-28.963	0.099
763.700	-35.892	0.099
763.800	-59.316	0.099
763.900	-30.970	0.099
764.000	-42.230	0.099
764.100	-40.449	0.099
764.200	-42.529	0.099
764.300	-35.258	0.099
764.400	-39.407	0.099
764.500	-41.579	0.099
764.600	-55.649	0.099
764.700	-26.306	0.099
764.800	-49.695	0.099
764.900	-43.485	0.099
765.000	-59.789	0.099
765.100	-36.386	0.099
765.200	-28.201	0.099
765.300	-43.008	0.099
765.400	-33.879	0.099
765.500	-44.081	0.099
765.600	-51.411	0.099
765.700	-29.513	0.099
765.800	-18.062	0.099
765.900	-50.048	0.099
766.000	-42.293	0.099
766.100	-44.394	0.099
766.200	-50.673	0.099
766.300	-47.866	0.099
766.400	-16.459	0.099
766.500	-28.294	0.099
766.600	-29.900	0.099
766.700	-15.413	0.099
766.800	-53.582	0.099
766.900	-33.246	0.099
767.000	-34.127	0.099
767.100	-29.944	0.099
767.200	-43.302	0.099
767.300	-53.436	0.099
767.400	-38.885	0.099
767.500	-36.098	0.099
767.600	-37.036	0.099
767.700	-33.028	0.099
767.800	-51.560	0.099
767.900	-29.448	0.099
768.000	-55.636	0.099
768.100	-28.395	0.099
768.200	-39.543	0.099
768.300	-45.539	0.099
768.400	-49.429	0.099
768.500	-25.396	0.099
768.600	-36.928	0.099
768.700	-34.706	0.100
768.800	-35.075	0.099
768.900	-28.964	0.099
769.000	-44.604	0.099
769.100	-29.668	0.099
769.200	-49.099	0.099
769.300	-40.205	0.099
769.400	-35.319	0.099
769.500	-41.754	0.099
769.600	-40.770	0.099
769.700	-34.754	0.099
769.800	-29.427	0.099
769.900	-48.107	0.099
770.000	-40.608	0.099
770.100	-37.686	0.099
770.200	-30.187	0.099
770.300	-43.448	0.099
770.400	-49.022	0.099
770.500	-40.191	0.099
770.600	-27.762	0.099
770.700	-26.525	0.099
770.800	-53.632	0.099
770.900	-53.619	0.099
771.000	-37.278	0.099
771.100	-31.065	0.099
771.200	-42.439	0.099
771.300	-37.024	0.099
771.400	-51.927	0.099
771.500	-59.660	0.099
771.600	-34.201	0.099
771.700	-32.931	0.099
771.800	-29.144	0.099
771.900	-53.876	0.100
772.000	-33.909	0.099
772.100	-41.062	0.099
772.200	-34.228	0.099
772.300	-23.230	0.099
772.400	-34.830	0.099
772.500	-36.188	0.099
772.600	-29.938	0.100
772.700	-47.342	0.099
772.800	-49.048	0.099
772.900	-24.146	0.099
773.000	-39.214	0.099
773.100	-43.487	0.099
773.200	-57.346	0.099
773.300	-26.681	0.099
773.400	-37.010	0.099
773.500	-55.697	0.099
773.600	-37.460	0.099
773.700	-31.014	0.099
773.800	-35.193	0.099
773.900	-27.212	0.099
774.000	-56.245	0.099
774.100	-32.680	0.099
774.200	-34.488	0.099
774.300	-22.666	0.099
774.400	-49.346	0.099
774.500	-33.279	0.099
774.600	-37.173	0.099
774.700	-31.813	0.099
774.800	-47.612	0.099
774.900	-44.475	0.099
775.000	-23.979	0.099
775.100	-36.075	0.099
775.200	-45.147	0.099
775.300	-36.892	0.099
775.400	-40.695	0.099
775.500	-43.208	0.099
775.600	-41.393	0.100
775.700	-37.020	0.099
775.800	-43.004	0.099
775.900	-56.123	0.099
776.000	-28.370	0.099
776.100	-38.477	0.099
776.200	-39.865	0.099
776.300	-29.019	0.099
776.400	-60.570	0.099
776.500	-30.142	0.099
776.600	-32.671	0.099
776.700	-12.074	0.099
776.800	-51.075	0.099
776.900	-39.175	0.099
777.000	-40.444	0.099
777.100	-45.226	0.099
777.200	-37.558	0.099
777.300	-36.950	0.099
777.400	-31.706	0.099
777.500	-31.744	0.099
777.600	-33.461	0.099
777.700	-27.650	0.099
777.800	-25.743	0.099
777.900	-27.830	0.099
778.000	-54.161	0.099
778.100	-29.673	0.099
778.200	-34.582	0.099
778.300	-35.441	0.100
778.400	-33.453	0.099
778.500	-45.961	0.099
778.600	-42.721	0.099
778.700	-36.158	0.099
778.800	-21.061	0.099
778.900	-50.097	0.099
779.000	-45.509	0.099
779.100	-48.965	0.099
779.200	-15.405	0.099
779.300	-40.599	0.099
779.400	-40.707	0.099
779.500	-24.733	0.099
779.600	-28.613	0.099
779.700	-36.467	0.099
779.800	-40.331	0.099
779.900	-36.300	0.099
780.000	-24.026	0.099
780.100	-32.273	0.099
780.200	-21.419	0.099
780.300	-41.043	0.099
780.400	-38.964	0.099
780.500	-62.182	0.099
780.600	-39.678	0.099
780.700	-19.996	0.099
780.800	-12.494	0.099
780.900	-10.006	0.099
781.000	-6.184	0.099
781.100	5.718	0.099
781.200	11.974	0.099
781.300	11.075	0.099
781.400	12.908	0.099
781.500	40.398	0.099
781.600	39.274	0.099
781.700	20.841	0.099
781.800	39.816	0.099
781.900	36.212	0.099
782.000	53.627	0.099
782.100	60.703	0.099
782.200	45.216	0.099
782.300	50.437	0.099
782.400	60.824	0.099
782.500	63.347	0.099
782.600	40.312	0.099
782.700	44.472	0.099
782.800	54.461	0.099
782.900	59.617	0.100
783.000	43.806	0.099
783.100	46.895	0.099
783.200	50.648	0.099
783.300	48.143	0.099
783.400	59.835	0.099
783.500	45.643	0.099
783.600	32.816	0.099
783.700	32.138	0.099
783.800	31.074	0.099
783.900	51.044	0.099
784.000	42.841	0.099
784.100	29.350	0.099
784.200	28.138	0.099
784.300	47.509	0.099
784.400	37.451	0.099
784.500	41.661	0.099
784.600	36.859	0.099
784.700	26.912	0.099
784.800	41.207	0.100
784.900	36.049	0.099
785.000	28.012	0.099
785.100	28.203	0.099
785.200	25.508	0.099
785.300	21.318	0.099
785.400	14.298	0.099
785.500	30.167	0.099
785.600	20.048	0.099
785.700	20.765	0.099
785.800	26.555	0.099
785.900	37.061	0.099
786.000	30.089	0.099
786.100	28.023	0.099
786.200	43.491	0.099
786.300	36.146	0.099
786.400	24.559	0.099
786.500	25.671	0.099
786.600	28.737	0.099
786.700	56.613	0.099
786.800	47.731	0.099
786.900	20.282	0.099
787.000	16.581	0.099
787.100	33.008	0.099
787.200	37.792	0.099
787.300	80.122	0.099
787.400	56.392	0.099
787.500	45.089	0.099
787.600	48.145	0.099
787.700	56.859	0.099
787.800	56.833	0.099
787.900	45.497	0.099
788.000	65.227	0.099
788.100	25.412	0.099
788.200	58.240	0.099
788.300	52.152	0.099
788.400	41.099	0.099
788.500	61.812	0.099
788.600	50.870	0.100
788.700	59.044	0.099
788.800	77.708	0.099
788.900	56.690	0.099
789.000	83.812	0.099
789.100	63.802	0.099
789.200	76.490	0.099
789.300	56.607	0.099
789.400	78.470	0.099
789.500	74.298	0.099
789.600	71.077	0.099
789.700	86.225	0.099
789.800	65.016	0.099
789.900	85.427	0.099
790.000	83.368	0.099
790.100	73.295	0.099
790.200	92.496	0.099
790.300	79.548	0.100
790.400	84.871	0.099
790.500	85.617	0.099
790.600	83.911	0.099
790.700	89.872	0.099
790.800	92.145	0.099
790.900	93.283	0.099
791.000	114.303	0.099
791.100	94.236	0.099
791.200	93.278	0.099
791.300	95.683	0.099
791.400	96.869	0.099
791.500	99.003	0.099
791.600	106.489	0.099
791.700	106.129	0.099
791.800	82.451	0.099
791.900	96.390	0.099
792.000	138.033	0.099
792.100	116.587	0.099
792.200	96.157	0.099
792.300	122.948	0.099
792.400	106.990	0.099
792.500	108.414	0.099
792.600	106.215	0.099
792.700	109.653	0.099
792.800	113.526	0.099
792.900	116.215	0.099
793.000	123.783	0.099
793.100	109.752	0.099
793.200	116.657	0.099
793.300	105.780	0.099
793.400	109.100	0.099
793.500	119.459	0.099
793.600	114.258	0.099
793.700	121.773	0.099
793.800	118.723	0.099
793.900	135.317	0.099
794.000	102.896	0.099
794.100	116.852	0.099
794.200	121.119	0.099
794.300	113.582	0.099
794.400	140.401	0.099
794.500	125.958	0.099
794.600	124.014	0.099
794.700	131.094	0.099
794.800	118.134	0.099
794.900	120.783	0.099
795.000	114.090	0.099
795.100	119.837	0.099
795.200	124.345	0.099
795.300	119.638	0.099
795.400	112.132	0.099
795.500	113.988	0.099
795.600	124.696	0.099
795.700	118.503	0.099
795.800	122.265	0.099
795.900	129.460	0.099
796.000	113.866	0.099
796.100	124.702	0.099
796.200	119.396	0.099
796.300	120.483	0.099
796.400	121.136	0.099
796.500	136.629	0.099
796.600	110.847	0.099
796.700	121.046	0.099
796.800	127.934	0.099
796.900	127.500	0.099
797.000	128.343	0.099
797.100	130.317	0.099
797.200	132.701	0.099
797.300	116.368	0.099
797.400	108.058	0.099
797.500	131.304	0.099
797.600	125.477	0.099
797.700	109.831	0.099
797.800	118.309	0.099
797.900	108.759	0.099
798.000	89.174	0.099
798.100	110.233	0.099
798.200	114.792	0.099
798.300	117.688	0.099
798.400	134.852	0.099
798.500	134.801	0.099
798.600	116.785	0.099
798.700	101.162	0.099
798.800	113.194	0.099
798.900	113.146	0.099
799.000	117.380	0.099
799.100	128.252	0.099
799.200	123.154	0.099
799.300	100.012	0.099
799.400	99.951	0.099
799.500	108.695	0.099
799.600	137.040	0.099
799.700	119.124	0.099
799.800	116.673	0.099
799.900	114.912	0.099
800.000	130.501	0.099
