time /s	I /nA	E /V
0.100	-10.175	0.099
0.200	-23.434	0.099
0.300	-4.760	0.099
0.400	2.164	0.099
0.500	-9.722	0.099
0.600	-1.519	0.099
0.700	-9.245	0.099
0.800	-7.519	0.099
0.900	-12.647	0.099
1.000	11.817	0.099
1.100	-2.139	0.099
1.200	-27.274	0.099
1.300	8.856	0.099
1.400	-13.450	0.099
1.500	-17.094	0.099
1.600	-19.480	0.099
1.700	-1.338	0.099
1.800	-19.165	0.099
1.900	-11.410	0.099
2.000	-14.478	0.099
2.100	1.697	0.099
2.200	-13.728	0.099
2.300	-13.576	0.099
2.400	-6.549	0.099
2.500	-5.579	0.099
2.600	-19.877	0.099
2.700	1.539	0.099
2.800	-28.716	0.099
2.900	1.890	0.099
3.000	-11.540	0.099
3.100	-14.116	0.099
3.200	13.521	0.099
3.300	-30.450	0.099
3.400	10.098	0.099
3.500	-6.449	0.099
3.600	-13.218	0.099
3.700	-1.711	0.099
3.800	-11.161	0.099
3.900	-10.728	0.099
4.000	-6.253	0.099
4.100	-23.959	0.099
4.200	-0.253	0.099
4.300	-14.351	0.099
4.400	-12.545	0.099
4.500	-4.275	0.099
4.600	-12.856	0.099
4.700	-17.287	0.099
4.800	10.666	0.099
4.900	-10.260	0.099
5.000	-23.609	0.099
5.100	12.065	0.099
5.200	-6.264	0.099
5.300	0.559	0.099
5.400	-5.916	0.099
5.500	-22.252	0.099
5.600	0.087	0.099
5.700	-16.353	0.099
5.800	-22.694	0.099
5.900	0.675	0.099
6.000	-25.141	0.099
6.100	-2.845	0.099
6.200	6.635	0.099
6.300	-12.002	0.099
6.400	-18.758	0.099
6.500	5.827	0.099
6.600	-23.340	0.099
6.700	-6.070	0.099
6.800	1.957	0.099
6.900	-6.659	0.099
7.000	-6.501	0.099
7.100	-6.547	0.099
7.200	4.223	0.099
7.300	-8.143	0.099
7.400	-25.783	0.099
7.500	-6.363	0.099
7.600	1.489	0.099
7.700	-22.553	0.099
7.800	-5.169	0.099
7.900	-20.828	0.099
8.000	-4.534	0.099
8.100	-9.757	0.099
8.200	-0.812	0.099
8.300	-19.793	0.099
8.400	-21.186	0.099
8.500	-5.812	0.099
8.600	-2.820	0.099
8.700	-17.956	0.099
8.800	-16.740	0.099
8.900	-6.603	0.099
9.000	6.529	0.099
9.100	-17.726	0.099
9.200	-5.023	0.099
9.300	1.576	0.099
9.400	-13.629	0.099
9.500	-0.155	0.099
9.600	-5.569	0.099
9.700	-35.495	0.099
9.800	1.817	0.099
9.900	7.304	0.099
10.000	-17.522	0.099
10.100	-9.770	0.099
10.200	-14.428	0.099
10.300	-20.066	0.099
10.400	-11.301	0.099
10.500	-9.925	0.099
10.600	0.100	0.099
10.700	-9.037	0.099
10.800	-1.939	0.099
10.900	-21.499	0.099
11.000	-16.641	0.099
11.100	-10.856	0.099
11.200	-9.746	0.099
11.300	-12.674	0.099
11.400	-0.513	0.099
11.500	4.854	0.099
11.600	-12.102	0.099
11.700	11.047	0.099
11.800	-5.870	0.099
11.900	-11.187	0.099
12.000	-10.502	0.099
12.100	-14.725	0.099
12.200	-7.857	0.099
12.300	-12.203	0.099
12.400	-3.616	0.099
12.500	-17.807	0.099
12.600	-9.350	0.099
12.700	-5.999	0.099
12.800	-12.502	0.099
12.900	-3.621	0.099
13.000	-15.055	0.099
13.100	-25.805	0.099
13.200	-21.719	0.099
13.300	-6.322	0.099
13.400	4.473	0.099
13.500	-10.596	0.099
13.600	7.512	0.099
13.700	4.397	0.099
13.800	2.616	0.099
13.900	-21.498	0.099
14.000	-20.556	0.099
14.100	-10.510	0.099
14.200	-34.333	0.099
14.300	-17.171	0.099
14.400	-1.062	0.099
14.500	-9.499	0.099
14.600	-7.500	0.099
14.700	-16.863	0.099
14.800	-12.551	0.099
14.900	1.512	0.099
15.000	-9.647	0.099
15.100	-5.077	0.099
15.200	-3.542	0.099
15.300	-11.571	0.099
15.400	-12.540	0.099
15.500	2.990	0.099
15.600	-23.712	0.099
15.700	-6.842	0.099
15.800	-6.393	0.099
15.900	-5.544	0.099
16.000	-10.248	0.099
16.100	-1.639	0.099
16.200	-15.355	0.099
16.300	-19.418	0.099
16.400	-22.949	0.099
16.500	2.422	0.099
16.600	-6.759	0.099
16.700	-9.202	0.099
16.800	-17.195	0.099
16.900	-13.224	0.099
17.000	-12.454	0.099
17.100	-13.597	0.099
17.200	-1.523	0.099
17.300	-4.565	0.099
17.400	5.498	0.099
17.500	-12.842	0.099
17.600	-24.136	0.099
17.700	-7.959	0.099
17.800	-10.718	0.099
17.900	-5.955	0.099
18.000	-17.645	0.099
18.100	-10.356	0.099
18.200	-11.022	0.099
18.300	-10.058	0.099
18.400	-3.833	0.099
18.500	6.579	0.099
18.600	-8.885	0.099
18.700	-31.334	0.099
18.800	-0.330	0.099
18.900	-17.253	0.099
19.000	-15.899	0.099
19.100	-4.145	0.100
19.200	-13.958	0.099
19.300	-18.536	0.099
19.400	-11.985	0.099
19.500	-9.983	0.099
19.600	-30.313	0.099
19.700	-15.671	0.099
19.800	0.742	0.099
19.900	-8.686	0.099
20.000	1.963	0.100
20.100	-19.393	0.099
20.200	-12.744	0.099
20.300	-19.101	0.099
20.400	1.424	0.099
20.500	-24.118	0.099
20.600	-1.758	0.099
20.700	-14.747	0.099
20.800	-4.415	0.099
20.900	-1.157	0.099
21.000	-0.056	0.099
21.100	1.125	0.099
21.200	-22.773	0.099
21.300	4.681	0.099
21.400	-5.333	0.099
21.500	-2.685	0.099
21.600	-13.810	0.100
21.700	-37.692	0.099
21.800	8.131	0.099
21.900	2.784	0.099
22.000	22.210	0.099
22.100	-14.208	0.099
22.200	-27.128	0.100
22.300	-1.079	0.099
22.400	-2.793	0.099
22.500	-23.297	0.099
22.600	-11.979	0.099
22.700	-7.629	0.099
22.800	-9.286	0.099
22.900	-15.649	0.099
23.000	-21.869	0.099
23.100	-0.771	0.099
23.200	-11.253	0.099
23.300	-9.014	0.099
23.400	-9.685	0.099
23.500	-32.634	0.099
23.600	0.414	0.099
23.700	16.592	0.099
23.800	-3.013	0.099
23.900	-14.283	0.099
24.000	-18.373	0.099
24.100	1.102	0.099
24.200	10.154	0.099
24.300	2.740	0.099
24.400	-9.286	0.099
24.500	-9.359	0.099
24.600	-18.145	0.099
24.700	-10.779	0.099
24.800	0.160	0.099
24.900	-14.134	0.099
25.000	-24.772	0.099
25.100	-7.762	0.099
25.200	5.101	0.099
25.300	-4.861	0.099
25.400	-14.132	0.099
25.500	-12.404	0.099
25.600	-10.499	0.099
25.700	-3.681	0.099
25.800	-1.703	0.099
25.900	-15.438	0.099
26.000	-27.870	0.099
26.100	6.081	0.099
26.200	-0.048	0.099
26.300	0.482	0.099
26.400	-5.405	0.099
26.500	-11.182	0.099
26.600	5.496	0.099
26.700	-13.323	0.099
26.800	-4.511	0.099
26.900	-6.668	0.099
27.000	-8.535	0.099
27.100	-16.242	0.099
27.200	-5.074	0.099
27.300	0.853	0.099
27.400	-5.061	0.099
27.500	-8.775	0.099
27.600	2.447	0.099
27.700	-8.437	0.099
27.800	-14.657	0.099
27.900	-1.742	0.099
28.000	-17.573	0.099
28.100	-10.951	0.099
28.200	-10.856	0.099
28.300	-13.823	0.099
28.400	-1.310	0.099
28.500	-1.469	0.099
28.600	-11.712	0.099
28.700	-16.767	0.099
28.800	-11.513	0.099
28.900	2.161	0.099
29.000	11.542	0.099
29.100	-12.582	0.099
29.200	-8.831	0.099
29.300	-17.181	0.099
29.400	-8.278	0.099
29.500	-22.827	0.099
29.600	-9.242	0.099
29.700	-12.051	0.099
29.800	-12.254	0.099
29.900	0.633	0.099
30.000	7.449	0.099
30.100	-11.193	0.099
30.200	-6.596	0.099
30.300	-20.691	0.099
30.400	9.177	0.099
30.500	3.632	0.099
30.600	-4.378	0.099
30.700	13.323	0.099
30.800	-12.383	0.099
30.900	-4.879	0.099
31.000	10.765	0.099
31.100	12.222	0.099
31.200	16.385	0.099
31.300	-21.424	0.099
31.400	21.635	0.099
31.500	6.597	0.099
31.600	2.207	0.099
31.700	9.175	0.099
31.800	15.091	0.099
31.900	5.760	0.099
32.000	9.621	0.099
32.100	9.217	0.099
32.200	27.972	0.099
32.300	21.114	0.099
32.400	34.237	0.099
32.500	29.151	0.099
32.600	22.749	0.099
32.700	7.402	0.099
32.800	36.450	0.099
32.900	43.344	0.100
33.000	24.435	0.099
33.100	37.069	0.099
33.200	36.462	0.099
33.300	40.608	0.099
33.400	38.061	0.099
33.500	40.536	0.099
33.600	41.559	0.099
33.700	36.377	0.099
33.800	38.064	0.099
33.900	61.464	0.099
34.000	56.618	0.099
34.100	44.382	0.099
34.200	51.221	0.099
34.300	60.497	0.099
34.400	50.459	0.099
34.500	28.860	0.099
34.600	55.898	0.099
34.700	80.200	0.099
34.800	55.652	0.099
34.900	60.008	0.099
35.000	61.929	0.099
35.100	54.783	0.099
35.200	69.640	0.099
35.300	59.549	0.099
35.400	47.072	0.099
35.500	62.066	0.099
35.600	70.033	0.099
35.700	74.506	0.099
35.800	74.139	0.099
35.900	68.775	0.099
36.000	64.565	0.099
36.100	57.393	0.099
36.200	64.617	0.099
36.300	75.326	0.099
36.400	87.093	0.099
36.500	72.490	0.099
36.600	58.754	0.099
36.700	64.683	0.099
36.800	35.529	0.099
36.900	49.757	0.099
37.000	64.136	0.099
37.100	68.306	0.099
37.200	64.138	0.099
37.300	55.119	0.099
37.400	61.396	0.099
37.500	48.559	0.099
37.600	76.007	0.099
37.700	67.703	0.099
37.800	51.833	0.099
37.900	58.532	0.099
38.000	58.982	0.099
38.100	71.909	0.099
38.200	75.634	0.099
38.300	83.310	0.099
38.400	62.537	0.099
38.500	70.253	0.099
38.600	66.374	0.099
38.700	53.104	0.099
38.800	62.646	0.099
38.900	48.631	0.099
39.000	87.908	0.099
39.100	81.310	0.099
39.200	43.686	0.099
39.300	62.344	0.099
39.400	63.618	0.099
39.500	51.314	0.099
39.600	69.285	0.099
39.700	82.272	0.099
39.800	60.959	0.099
39.900	66.839	0.099
40.000	70.931	0.099
40.100	88.412	0.099
40.200	57.454	0.099
40.300	71.204	0.099
40.400	72.187	0.099
40.500	66.348	0.099
40.600	66.835	0.099
40.700	65.257	0.099
40.800	48.598	0.099
40.900	65.030	0.099
41.000	77.235	0.099
41.100	64.487	0.099
41.200	60.143	0.099
41.300	74.169	0.099
41.400	61.724	0.099
41.500	55.214	0.099
41.600	58.917	0.099
41.700	58.397	0.099
41.800	75.578	0.099
41.900	58.975	0.099
42.000	63.391	0.099
42.100	76.267	0.099
42.200	52.022	0.099
42.300	52.138	0.099
42.400	43.679	0.099
42.500	49.392	0.099
42.600	70.999	0.099
42.700	58.991	0.099
42.800	62.295	0.099
42.900	70.202	0.099
43.000	69.146	0.099
43.100	43.522	0.099
43.200	56.228	0.099
43.300	61.175	0.099
43.400	69.298	0.099
43.500	71.607	0.099
43.600	49.224	0.099
43.700	62.097	0.099
43.800	46.141	0.099
43.900	45.998	0.099
44.000	64.196	0.099
44.100	72.895	0.099
44.200	40.599	0.099
44.300	49.966	0.099
44.400	66.431	0.099
44.500	64.783	0.099
44.600	60.080	0.099
44.700	37.077	0.099
44.800	63.402	0.099
44.900	57.183	0.099
45.000	58.333	0.099
45.100	69.430	0.099
45.200	58.147	0.099
45.300	61.342	0.099
45.400	61.619	0.099
45.500	63.353	0.099
45.600	70.423	0.099
45.700	58.659	0.099
45.800	72.211	0.099
45.900	30.758	0.099
46.000	62.789	0.099
46.100	63.014	0.099
46.200	55.786	0.099
46.300	57.645	0.099
46.400	29.475	0.099
46.500	43.295	0.099
46.600	43.787	0.099
46.700	53.577	0.099
46.800	75.099	0.099
46.900	75.125	0.099
47.000	51.535	0.099
47.100	74.337	0.099
47.200	43.505	0.099
47.300	63.898	0.099
47.400	62.539	0.099
47.500	47.538	0.099
47.600	70.984	0.099
47.700	54.541	0.099
47.800	52.636	0.099
47.900	57.122	0.099
48.000	46.071	0.099
48.100	65.916	0.099
48.200	58.796	0.099
48.300	47.811	0.099
48.400	47.024	0.099
48.500	53.097	0.099
48.600	65.904	0.099
48.700	34.076	0.099
48.800	45.265	0.099
48.900	66.570	0.099
49.000	77.273	0.099
49.100	66.055	0.099
49.200	54.741	0.099
49.300	55.488	0.099
49.400	45.500	0.099
49.500	37.644	0.099
49.600	57.846	0.099
49.700	59.294	0.099
49.800	41.324	0.099
49.900	30.725	0.099
50.000	42.769	0.099
50.100	70.726	0.099
50.200	62.137	0.099
50.300	56.516	0.099
50.400	57.212	0.099
50.500	47.218	0.099
50.600	44.966	0.099
50.700	45.247	0.099
50.800	59.163	0.099
50.900	53.600	0.099
51.000	61.954	0.099
51.100	32.435	0.099
51.200	50.887	0.099
51.300	52.475	0.099
51.400	55.979	0.099
51.500	52.004	0.099
51.600	56.480	0.099
51.700	53.262	0.099
51.800	44.744	0.099
51.900	37.002	0.099
52.000	41.317	0.099
52.100	71.528	0.099
52.200	67.841	0.099
52.300	67.806	0.099
52.400	59.757	0.099
52.500	45.587	0.099
52.600	53.736	0.099
52.700	53.446	0.099
52.800	49.386	0.099
52.900	40.829	0.099
53.000	57.347	0.099
53.100	60.755	0.099
53.200	61.415	0.099
53.300	52.993	0.099
53.400	54.743	0.099
53.500	42.178	0.099
53.600	33.898	0.099
53.700	44.523	0.099
53.800	63.773	0.099
53.900	59.890	0.099
54.000	56.730	0.099
54.100	54.209	0.099
54.200	53.588	0.099
54.300	51.093	0.099
54.400	65.013	0.099
54.500	60.365	0.099
54.600	61.339	0.099
54.700	59.081	0.099
54.800	47.484	0.099
54.900	66.001	0.099
55.000	51.403	0.099
55.100	44.943	0.099
55.200	61.300	0.099
55.300	60.019	0.099
55.400	40.763	0.099
55.500	53.664	0.099
55.600	66.049	0.099
55.700	61.351	0.099
55.800	57.918	0.099
55.900	58.170	0.099
56.000	53.004	0.099
56.100	39.138	0.099
56.200	62.438	0.099
56.300	67.376	0.099
56.400	62.669	0.099
56.500	59.223	0.099
56.600	72.726	0.099
56.700	68.082	0.099
56.800	45.035	0.099
56.900	46.857	0.099
57.000	48.739	0.099
57.100	44.576	0.099
57.200	76.850	0.099
57.300	52.397	0.099
57.400	49.409	0.099
57.500	52.000	0.099
57.600	40.984	0.099
57.700	57.724	0.099
57.800	37.969	0.099
57.900	74.649	0.099
58.000	66.566	0.099
58.100	50.735	0.099
58.200	55.737	0.099
58.300	50.836	0.099
58.400	49.072	0.099
58.500	58.946	0.099
58.600	62.059	0.099
58.700	75.306	0.099
58.800	65.810	0.099
58.900	64.177	0.099
59.000	63.590	0.099
59.100	49.582	0.099
59.200	60.742	0.099
59.300	44.156	0.099
59.400	53.299	0.099
59.500	67.292	0.099
59.600	65.217	0.099
59.700	44.401	0.099
59.800	45.096	0.099
59.900	57.299	0.099
60.000	69.010	0.099
60.100	62.939	0.099
60.200	66.270	0.099
60.300	37.671	0.099
60.400	66.949	0.099
60.500	60.891	0.099
60.600	50.019	0.099
60.700	58.837	0.099
60.800	39.391	0.099
60.900	46.801	0.099
61.000	62.003	0.099
61.100	72.727	0.099
61.200	63.429	0.099
61.300	67.806	0.099
61.400	62.562	0.099
61.500	56.188	0.099
61.600	58.971	0.099
61.700	57.679	0.099
61.800	47.740	0.099
61.900	64.560	0.099
62.000	68.575	0.099
62.100	60.333	0.099
62.200	51.271	0.099
62.300	41.216	0.099
62.400	80.238	0.099
62.500	50.034	0.099
62.600	51.452	0.099
62.700	47.948	0.099
62.800	65.943	0.099
62.900	68.709	0.099
63.000	78.631	0.099
63.100	61.312	0.099
63.200	60.224	0.099
63.300	72.951	0.099
63.400	68.314	0.099
63.500	66.162	0.099
63.600	69.673	0.099
63.700	41.289	0.099
63.800	47.220	0.099
63.900	62.786	0.099
64.000	84.443	0.099
64.100	65.278	0.099
64.200	66.175	0.099
64.300	78.506	0.099
64.400	61.583	0.099
64.500	76.407	0.099
64.600	52.180	0.099
64.700	63.196	0.099
64.800	50.897	0.099
64.900	71.380	0.099
65.000	61.839	0.099
65.100	65.455	0.099
65.200	67.214	0.099
65.300	52.720	0.099
65.400	70.304	0.099
65.500	62.976	0.099
65.600	59.782	0.099
65.700	48.647	0.099
65.800	61.042	0.099
65.900	35.835	0.099
66.000	58.734	0.099
66.100	42.621	0.099
66.200	71.564	0.099
66.300	78.566	0.099
66.400	70.200	0.099
66.500	62.871	0.099
66.600	60.747	0.099
66.700	61.740	0.099
66.800	56.179	0.099
66.900	92.073	0.099
67.000	67.525	0.099
67.100	79.166	0.099
67.200	60.072	0.099
67.300	38.521	0.099
67.400	61.160	0.099
67.500	53.441	0.099
67.600	76.728	0.099
67.700	66.706	0.099
67.800	57.826	0.099
67.900	86.731	0.099
68.000	46.957	0.099
68.100	62.993	0.099
68.200	71.633	0.099
68.300	51.517	0.099
68.400	55.258	0.099
68.500	56.925	0.099
68.600	86.858	0.099
68.700	61.433	0.099
68.800	60.082	0.099
68.900	64.540	0.099
69.000	68.757	0.099
69.100	55.083	0.099
69.200	72.503	0.099
69.300	67.678	0.099
69.400	59.456	0.099
69.500	73.347	0.099
69.600	80.899	0.099
69.700	41.966	0.099
69.800	45.315	0.099
69.900	84.400	0.099
70.000	59.836	0.099
70.100	73.398	0.099
70.200	80.594	0.099
70.300	66.406	0.099
70.400	43.337	0.099
70.500	56.360	0.099
70.600	68.900	0.099
70.700	76.323	0.099
70.800	70.526	0.099
70.900	62.942	0.099
71.000	60.649	0.099
71.100	77.582	0.099
71.200	85.102	0.099
71.300	73.775	0.099
71.400	52.246	0.099
71.500	57.465	0.099
71.600	66.289	0.099
71.700	66.721	0.099
71.800	69.219	0.099
71.900	59.549	0.099
72.000	58.455	0.099
72.100	82.647	0.099
72.200	50.668	0.099
72.300	71.699	0.099
72.400	44.524	0.099
72.500	61.048	0.099
72.600	67.862	0.099
72.700	72.025	0.099
72.800	81.653	0.099
72.900	79.920	0.099
73.000	60.466	0.099
73.100	72.775	0.099
73.200	56.587	0.099
73.300	76.435	0.099
73.400	61.863	0.099
73.500	50.613	0.099
73.600	67.352	0.099
73.700	52.394	0.099
73.800	70.925	0.099
73.900	68.303	0.099
74.000	73.127	0.099
74.100	57.161	0.099
74.200	67.762	0.099
74.300	57.545	0.099
74.400	61.954	0.100
74.500	71.605	0.099
74.600	56.379	0.099
74.700	76.717	0.099
74.800	66.378	0.099
74.900	59.037	0.099
75.000	75.043	0.099
75.100	45.179	0.099
75.200	60.281	0.099
75.300	64.938	0.099
75.400	68.894	0.100
75.500	75.612	0.099
75.600	75.027	0.100
75.700	71.291	0.100
75.800	76.486	0.099
75.900	74.080	0.099
76.000	61.669	0.099
76.100	66.659	0.099
76.200	69.322	0.099
76.300	71.398	0.099
76.400	73.929	0.099
76.500	71.569	0.099
76.600	77.770	0.099
76.700	76.137	0.099
76.800	75.722	0.099
76.900	63.217	0.099
77.000	63.467	0.099
77.100	80.615	0.099
77.200	75.728	0.099
77.300	62.978	0.099
77.400	68.242	0.099
77.500	62.057	0.099
77.600	76.860	0.099
77.700	66.364	0.099
77.800	77.606	0.099
77.900	69.780	0.099
78.000	75.795	0.099
78.100	74.332	0.099
78.200	88.857	0.099
78.300	53.199	0.099
78.400	76.186	0.099
78.500	82.914	0.099
78.600	65.935	0.099
78.700	67.345	0.099
78.800	67.402	0.099
78.900	67.756	0.099
79.000	56.838	0.099
79.100	83.289	0.099
79.200	89.274	0.099
79.300	63.700	0.099
79.400	66.294	0.099
79.500	74.713	0.100
79.600	82.977	0.099
79.700	93.583	0.099
79.800	70.645	0.099
79.900	61.729	0.099
80.000	54.729	0.099
80.100	61.144	0.099
80.200	74.325	0.099
80.300	76.033	0.099
80.400	66.333	0.099
80.500	74.004	0.099
80.600	59.071	0.099
80.700	88.895	0.099
80.800	76.364	0.099
80.900	51.909	0.099
81.000	60.718	0.100
81.100	79.983	0.099
81.200	80.670	0.099
81.300	62.283	0.099
81.400	39.122	0.099
81.500	61.605	0.099
81.600	64.938	0.099
81.700	78.026	0.099
81.800	54.114	0.099
81.900	79.147	0.099
82.000	58.337	0.099
82.100	68.053	0.099
82.200	84.233	0.099
82.300	73.308	0.099
82.400	66.920	0.099
82.500	64.265	0.099
82.600	80.083	0.099
82.700	77.127	0.099
82.800	63.637	0.099
82.900	75.589	0.099
83.000	85.413	0.099
83.100	49.634	0.099
83.200	72.471	0.099
83.300	48.411	0.099
83.400	77.227	0.099
83.500	80.855	0.099
83.600	66.733	0.099
83.700	40.584	0.099
83.800	82.801	0.099
83.900	79.307	0.099
84.000	76.740	0.099
84.100	64.615	0.099
84.200	72.871	0.099
84.300	66.275	0.100
84.400	74.038	0.099
84.500	84.144	0.099
84.600	78.625	0.099
84.700	71.504	0.099
84.800	70.998	0.099
84.900	81.606	0.099
85.000	76.869	0.099
85.100	85.476	0.099
85.200	100.644	0.099
85.300	75.318	0.099
85.400	71.479	0.099
85.500	88.789	0.099
85.600	74.321	0.099
85.700	59.501	0.099
85.800	88.946	0.099
85.900	85.357	0.099
86.000	71.441	0.100
86.100	73.297	0.099
86.200	67.894	0.099
86.300	74.358	0.099
86.400	72.741	0.099
86.500	71.369	0.099
86.600	57.459	0.099
86.700	58.840	0.099
86.800	76.670	0.099
86.900	66.123	0.099
87.000	96.474	0.099
87.100	66.017	0.100
87.200	79.734	0.099
87.300	71.049	0.099
87.400	72.966	0.099
87.500	78.784	0.099
87.600	65.560	0.099
87.700	62.815	0.099
87.800	77.991	0.099
87.900	74.064	0.099
88.000	57.248	0.099
88.100	88.065	0.099
88.200	71.734	0.100
88.300	79.086	0.099
88.400	66.519	0.099
88.500	73.333	0.099
88.600	75.943	0.099
88.700	77.627	0.099
88.800	75.674	0.100
88.900	84.882	0.099
89.000	62.886	0.099
89.100	64.212	0.099
89.200	90.304	0.099
89.300	81.421	0.099
89.400	63.384	0.099
89.500	62.330	0.099
89.600	64.729	0.099
89.700	86.758	0.099
89.800	87.697	0.099
89.900	74.657	0.099
90.000	63.004	0.099
90.100	77.899	0.099
90.200	45.585	0.099
90.300	60.795	0.099
90.400	80.181	0.099
90.500	63.251	0.099
90.600	52.784	0.099
90.700	44.284	0.099
90.800	37.662	0.099
90.900	39.881	0.099
91.000	33.921	0.099
91.100	34.165	0.099
91.200	16.224	0.099
91.300	22.428	0.099
91.400	26.275	0.099
91.500	23.067	0.099
91.600	46.871	0.099
91.700	23.312	0.099
91.800	12.706	0.099
91.900	24.416	0.099
92.000	-3.390	0.099
92.100	17.187	0.099
92.200	17.090	0.099
92.300	18.472	0.100
92.400	-1.232	0.099
92.500	-0.635	0.099
92.600	2.427	0.099
92.700	9.497	0.099
92.800	9.926	0.099
92.900	-23.349	0.099
93.000	0.510	0.099
93.100	-16.518	0.099
93.200	-3.723	0.099
93.300	-5.503	0.099
93.400	-24.690	0.099
93.500	-12.166	0.099
93.600	-21.955	0.099
93.700	-2.738	0.099
93.800	-10.414	0.099
93.900	-13.792	0.100
94.000	-17.353	0.099
94.100	-19.102	0.099
94.200	-13.462	0.099
94.300	-27.019	0.099
94.400	-10.793	0.099
94.500	-24.746	0.099
94.600	-13.457	0.099
94.700	-0.879	0.099
94.800	-23.317	0.100
94.900	-37.631	0.099
95.000	-37.818	0.099
95.100	-34.256	0.099
95.200	-35.781	0.100
95.300	-20.478	0.099
95.400	-11.262	0.099
95.500	-22.949	0.099
95.600	-23.306	0.099
95.700	-21.902	0.099
95.800	-14.195	0.099
95.900	-20.203	0.099
96.000	-5.944	0.099
96.100	-29.364	0.099
96.200	-13.879	0.099
96.300	-19.104	0.099
96.400	-32.951	0.099
96.500	-22.132	0.099
96.600	-12.440	0.099
96.700	-19.227	0.099
96.800	-25.346	0.099
96.900	-18.201	0.099
97.000	-14.162	0.099
97.100	-13.199	0.099
97.200	-16.101	0.099
97.300	-8.789	0.099
97.400	-20.199	0.099
97.500	-9.654	0.099
97.600	-1.060	0.100
97.700	-14.100	0.099
97.800	-26.274	0.099
97.900	-21.545	0.099
98.000	-9.360	0.099
98.100	-19.335	0.099
98.200	-13.582	0.099
98.300	-21.678	0.099
98.400	-12.165	0.099
98.500	-28.509	0.099
98.600	-14.143	0.100
98.700	-29.152	0.099
98.800	-16.387	0.099
98.900	-14.350	0.099
99.000	10.323	0.099
99.100	-11.158	0.099
99.200	-9.539	0.099
99.300	-27.862	0.099
99.400	-10.359	0.099
99.500	-22.958	0.100
99.600	-5.562	0.099
99.700	-15.295	0.099
99.800	-31.150	0.099
99.900	5.097	0.100
100.000	-0.195	0.099
100.100	-17.416	0.099
100.200	5.149	0.100
100.300	-17.582	0.099
100.400	-18.064	0.099
100.500	-22.186	0.099
100.600	0.021	0.099
100.700	-9.949	0.099
100.800	-15.918	0.099
100.900	-9.887	0.099
101.000	-4.562	0.099
101.100	-16.228	0.099
101.200	-25.885	0.099
101.300	0.575	0.099
101.400	4.418	0.100
101.500	-19.815	0.099
101.600	-8.216	0.099
101.700	-16.899	0.099
101.800	-12.754	0.099
101.900	-5.389	0.099
102.000	-3.799	0.099
102.100	-11.689	0.099
102.200	-3.185	0.099
102.300	-22.313	0.099
102.400	-2.875	0.099
102.500	14.352	0.099
102.600	-8.646	0.099
102.700	6.603	0.099
102.800	-21.931	0.099
102.900	-13.386	0.099
103.000	-30.794	0.099
103.100	-0.640	0.099
103.200	10.147	0.099
103.300	-5.011	0.099
103.400	-8.249	0.099
103.500	-11.560	0.099
103.600	8.376	0.099
103.700	-16.231	0.099
103.800	-9.356	0.100
103.900	-23.584	0.099
104.000	-22.615	0.099
104.100	-20.918	0.099
104.200	6.759	0.099
104.300	-25.889	0.099
104.400	10.500	0.099
104.500	-11.468	0.099
104.600	5.891	0.099
104.700	-18.287	0.099
104.800	-9.467	0.099
104.900	-4.395	0.100
105.000	-27.283	0.099
105.100	-19.554	0.099
105.200	-5.882	0.099
105.300	-23.396	0.099
105.400	-4.518	0.099
105.500	0.795	0.099
105.600	-4.680	0.099
105.700	24.083	0.100
105.800	-11.151	0.099
105.900	-3.201	0.099
106.000	-14.087	0.099
106.100	-12.248	0.099
106.200	-19.401	0.099
106.300	2.784	0.099
106.400	-7.061	0.100
106.500	-8.087	0.099
106.600	-7.542	0.099
106.700	-16.865	0.099
106.800	-6.553	0.099
106.900	-23.006	0.099
107.000	2.637	0.100
107.100	-2.552	0.100
107.200	-3.095	0.100
107.300	0.687	0.099
107.400	-33.920	0.099
107.500	5.807	0.099
107.600	-16.060	0.099
107.700	-12.340	0.099
107.800	-8.259	0.099
107.900	-32.374	0.100
108.000	6.980	0.099
108.100	-2.986	0.100
108.200	-22.685	0.099
108.300	-26.065	0.099
108.400	-2.147	0.100
108.500	-9.483	0.099
108.600	-2.166	0.099
108.700	-6.203	0.100
108.800	-21.352	0.100
108.900	-0.057	0.099
109.000	2.123	0.099
109.100	-12.616	0.099
109.200	-6.705	0.099
109.300	2.079	0.099
109.400	-20.093	0.099
109.500	-9.129	0.099
109.600	-23.909	0.099
109.700	-30.666	0.099
109.800	-10.901	0.099
109.900	-22.653	0.099
110.000	-10.018	0.099
110.100	-3.232	0.099
110.200	-6.374	0.100
110.300	-10.985	0.099
110.400	-16.037	0.099
110.500	-7.449	0.099
110.600	-13.763	0.099
110.700	0.286	0.099
110.800	-30.901	0.099
110.900	-2.976	0.099
111.000	-22.661	0.099
111.100	-16.934	0.099
111.200	-31.860	0.099
111.300	-20.777	0.099
111.400	-16.009	0.099
111.500	-11.271	0.099
111.600	7.928	0.099
111.700	-0.721	0.099
111.800	-19.694	0.099
111.900	-8.519	0.099
112.000	-17.016	0.099
112.100	-14.914	0.099
112.200	-24.167	0.099
112.300	-33.093	0.099
112.400	2.454	0.099
112.500	-6.394	0.099
112.600	-19.077	0.099
112.700	-15.450	0.100
112.800	-23.147	0.099
112.900	-6.670	0.099
113.000	-6.830	0.099
113.100	-2.384	0.099
113.200	-22.601	0.099
113.300	-4.488	0.099
113.400	-23.854	0.099
113.500	-11.160	0.099
113.600	-9.303	0.099
113.700	-12.962	0.099
113.800	-20.710	0.099
113.900	-16.510	0.099
114.000	-27.000	0.099
114.100	-6.272	0.099
114.200	0.283	0.099
114.300	-23.284	0.100
114.400	-39.444	0.100
114.500	-1.961	0.099
114.600	-18.987	0.099
114.700	-6.560	0.099
114.800	3.584	0.099
114.900	-12.340	0.099
115.000	-12.378	0.099
115.100	-3.177	0.099
115.200	-27.805	0.099
115.300	-24.940	0.099
115.400	-16.877	0.099
115.500	-30.614	0.099
115.600	-14.343	0.099
115.700	-12.774	0.099
115.800	2.809	0.099
115.900	-0.583	0.099
116.000	-0.557	0.099
116.100	-11.923	0.099
116.200	-38.857	0.099
116.300	-21.906	0.099
116.400	-21.172	0.099
116.500	-33.246	0.099
116.600	-24.808	0.099
116.700	-27.206	0.099
116.800	-19.421	0.100
116.900	3.341	0.099
117.000	2.750	0.099
117.100	-21.301	0.099
117.200	-27.911	0.099
117.300	-27.856	0.099
117.400	3.112	0.099
117.500	-24.286	0.099
117.600	-21.391	0.099
117.700	-40.152	0.099
117.800	-29.209	0.099
117.900	-22.062	0.099
118.000	-9.225	0.099
118.100	-1.918	0.099
118.200	-33.637	0.099
118.300	-16.521	0.099
118.400	-22.098	0.099
118.500	-30.864	0.099
118.600	-7.591	0.099
118.700	0.837	0.099
118.800	-14.263	0.099
118.900	-12.383	0.099
119.000	-26.029	0.099
119.100	-18.045	0.100
119.200	-5.678	0.100
119.300	-16.841	0.099
119.400	-30.029	0.100
119.500	-14.429	0.099
119.600	-24.279	0.099
119.700	-16.039	0.099
119.800	-5.078	0.099
119.900	-6.496	0.099
120.000	-18.772	0.100
120.100	-19.595	0.099
120.200	-23.855	0.100
120.300	-19.649	0.099
120.400	-18.611	0.099
120.500	-0.205	0.099
120.600	-25.881	0.100
120.700	-8.329	0.099
120.800	-24.397	0.099
120.900	-22.093	0.099
121.000	-8.673	0.099
121.100	-1.558	0.100
121.200	6.633	0.099
121.300	-30.499	0.099
121.400	-19.706	0.099
121.500	-16.220	0.100
121.600	-22.054	0.099
121.700	-11.345	0.099
121.800	-41.950	0.099
121.900	-12.371	0.099
122.000	-20.474	0.099
122.100	-35.394	0.100
122.200	-20.843	0.100
122.300	-10.277	0.099
122.400	-10.469	0.099
122.500	-29.598	0.099
122.600	-35.219	0.099
122.700	-8.442	0.099
122.800	0.454	0.100
122.900	-8.619	0.100
123.000	-15.187	0.099
123.100	-24.559	0.099
123.200	-21.275	0.099
123.300	-11.123	0.099
123.400	-29.172	0.099
123.500	-16.284	0.099
123.600	-22.450	0.099
123.700	-11.125	0.100
123.800	-20.045	0.099
123.900	-24.806	0.099
124.000	-25.848	0.099
124.100	-7.841	0.099
124.200	-26.133	0.100
124.300	-9.102	0.099
124.400	-15.289	0.099
124.500	-27.886	0.099
124.600	-19.517	0.099
124.700	-37.964	0.099
124.800	-7.939	0.100
124.900	-31.357	0.099
125.000	-26.910	0.099
125.100	-37.798	0.099
125.200	-11.488	0.100
125.300	-12.375	0.099
125.400	-19.518	0.099
125.500	-16.713	0.099
125.600	-31.964	0.100
125.700	-18.864	0.099
125.800	-30.784	0.099
125.900	-24.994	0.099
126.000	-19.209	0.100
126.100	-25.172	0.099
126.200	-12.475	0.100
126.300	-28.870	0.099
126.400	-33.059	0.099
126.500	-35.334	0.099
126.600	-25.333	0.099
126.700	-9.436	0.099
126.800	-38.830	0.099
126.900	-40.478	0.099
127.000	3.260	0.099
127.100	-20.050	0.099
127.200	-14.224	0.099
127.300	-13.505	0.099
127.400	-17.585	0.099
127.500	-32.000	0.099
127.600	-32.136	0.099
127.700	-21.783	0.100
127.800	-34.879	0.099
127.900	-9.706	0.099
128.000	-4.094	0.099
128.100	-38.780	0.099
128.200	-22.074	0.099
128.300	-6.649	0.099
128.400	-22.470	0.099
128.500	-19.285	0.099
128.600	-7.552	0.099
128.700	-33.477	0.099
128.800	-33.952	0.099
128.900	-42.927	0.099
129.000	3.114	0.100
129.100	-23.692	0.099
129.200	-20.218	0.099
129.300	-29.363	0.100
129.400	-43.372	0.099
129.500	-13.909	0.099
129.600	-19.303	0.099
129.700	-37.827	0.099
129.800	-22.430	0.099
129.900	-26.027	0.099
130.000	-40.177	0.099
130.100	-15.508	0.100
130.200	-34.641	0.100
130.300	-20.224	0.099
130.400	-3.171	0.100
130.500	-30.232	0.100
130.600	-19.531	0.099
130.700	-27.538	0.099
130.800	-20.778	0.099
130.900	-39.391	0.099
131.000	-27.745	0.099
131.100	-20.377	0.099
131.200	-23.899	0.099
131.300	-26.704	0.099
131.400	-30.556	0.099
131.500	-31.216	0.099
131.600	5.166	0.099
131.700	-10.538	0.099
131.800	-8.081	0.099
131.900	-32.933	0.100
132.000	-40.028	0.099
132.100	-26.333	0.100
132.200	-7.967	0.100
132.300	-26.324	0.099
132.400	-52.272	0.099
132.500	-13.033	0.100
132.600	-12.760	0.099
132.700	-9.330	0.100
132.800	-13.711	0.099
132.900	3.178	0.099
133.000	-22.106	0.100
133.100	-44.854	0.100
133.200	-53.071	0.099
133.300	-28.972	0.100
133.400	-37.520	0.100
133.500	-22.283	0.099
133.600	2.016	0.099
133.700	-26.969	0.100
133.800	-32.788	0.099
133.900	-36.878	0.099
134.000	-4.780	0.099
134.100	-14.246	0.099
134.200	-15.793	0.099
134.300	-29.319	0.100
134.400	-39.648	0.099
134.500	-31.607	0.099
134.600	-32.213	0.099
134.700	-27.355	0.099
134.800	-25.063	0.100
134.900	-30.453	0.099
135.000	-19.804	0.099
135.100	-22.710	0.099
135.200	-20.555	0.099
135.300	-7.791	0.099
135.400	-19.800	0.099
135.500	-21.404	0.100
135.600	-38.077	0.099
135.700	-30.506	0.100
135.800	-28.466	0.099
135.900	-16.979	0.099
136.000	-18.067	0.100
136.100	-34.092	0.099
136.200	-26.355	0.099
136.300	-27.577	0.100
136.400	-24.629	0.099
136.500	-15.527	0.100
136.600	-39.560	0.100
136.700	-29.496	0.099
136.800	-30.744	0.099
136.900	-31.235	0.100
137.000	-7.370	0.099
137.100	-19.140	0.099
137.200	-36.661	0.099
137.300	-12.046	0.099
137.400	-28.117	0.099
137.500	-32.394	0.099
137.600	-16.217	0.099
137.700	-26.083	0.099
137.800	-27.094	0.099
137.900	-25.850	0.099
138.000	-35.017	0.099
138.100	-23.733	0.100
138.200	-20.551	0.099
138.300	-34.691	0.100
138.400	-41.997	0.100
138.500	-17.782	0.099
138.600	-16.761	0.100
138.700	-31.686	0.099
138.800	-18.363	0.099
138.900	-18.936	0.099
139.000	-25.857	0.100
139.100	-21.035	0.099
139.200	-39.002	0.099
139.300	-37.407	0.099
139.400	-9.480	0.099
139.500	-10.399	0.099
139.600	-18.069	0.099
139.700	-23.003	0.100
139.800	-30.981	0.099
139.900	-22.298	0.099
140.000	-38.787	0.099
140.100	-30.617	0.100
140.200	-29.238	0.099
140.300	-19.754	0.099
140.400	-21.146	0.100
140.500	-25.866	0.100
140.600	-22.720	0.100
140.700	-25.345	0.099
140.800	-18.665	0.099
140.900	-46.014	0.099
141.000	-24.403	0.099
141.100	-16.585	0.100
141.200	-10.488	0.099
141.300	-31.951	0.099
141.400	-28.386	0.099
141.500	-26.535	0.099
141.600	-44.063	0.099
141.700	-30.311	0.099
141.800	-38.226	0.099
141.900	-16.809	0.099
142.000	-56.575	0.100
142.100	-22.084	0.099
142.200	-20.474	0.099
142.300	-15.908	0.099
142.400	-32.409	0.099
142.500	-19.393	0.099
142.600	-13.878	0.099
142.700	-7.993	0.099
142.800	-31.921	0.099
142.900	-30.478	0.099
143.000	-30.630	0.100
143.100	-34.945	0.099
143.200	-28.966	0.099
143.300	-11.619	0.100
143.400	-44.743	0.099
143.500	-18.282	0.099
143.600	-27.303	0.099
143.700	-17.602	0.099
143.800	-10.485	0.099
143.900	1.907	0.099
144.000	-13.375	0.099
144.100	-23.208	0.099
144.200	-28.421	0.099
144.300	-54.258	0.099
144.400	-22.446	0.099
144.500	-29.999	0.099
144.600	-14.394	0.099
144.700	-13.813	0.099
144.800	-11.849	0.099
144.900	-35.244	0.099
145.000	-21.588	0.099
145.100	-18.374	0.099
145.200	-11.512	0.099
145.300	-23.656	0.099
145.400	-20.795	0.099
145.500	-26.415	0.099
145.600	-28.974	0.099
145.700	-20.741	0.099
145.800	-9.204	0.099
145.900	-16.983	0.099
146.000	-21.268	0.100
146.100	-36.077	0.099
146.200	-22.914	0.099
146.300	-25.016	0.099
146.400	-16.957	0.099
146.500	-22.422	0.099
146.600	-14.635	0.099
146.700	-23.816	0.099
146.800	-8.232	0.099
146.900	-26.433	0.099
147.000	-39.303	0.099
147.100	-34.030	0.099
147.200	-7.693	0.099
147.300	-17.596	0.099
147.400	-33.910	0.099
147.500	-18.202	0.099
147.600	-22.157	0.099
147.700	-20.359	0.099
147.800	-29.589	0.099
147.900	-34.837	0.099
148.000	-25.360	0.099
148.100	-33.106	0.099
148.200	-17.787	0.099
148.300	-3.075	0.099
148.400	-31.685	0.099
148.500	-20.308	0.099
148.600	-22.725	0.099
148.700	-18.700	0.099
148.800	-17.466	0.099
148.900	-31.835	0.099
149.000	-22.997	0.099
149.100	-42.623	0.099
149.200	-11.834	0.099
149.300	-28.838	0.099
149.400	-27.402	0.099
149.500	-24.062	0.099
149.600	-30.317	0.100
149.700	-20.871	0.099
149.800	-34.487	0.099
149.900	-24.255	0.099
150.000	-23.390	0.099
150.100	-23.924	0.099
150.200	-22.953	0.099
150.300	-22.630	0.099
150.400	-30.187	0.099
150.500	-29.116	0.099
150.600	-17.236	0.099
150.700	-3.465	0.099
150.800	-18.191	0.099
150.900	-29.487	0.099
151.000	-32.659	0.099
151.100	-34.545	0.099
151.200	-26.001	0.099
151.300	-19.738	0.099
151.400	-21.369	0.099
151.500	-25.281	0.099
151.600	-13.353	0.099
151.700	-14.835	0.099
151.800	-19.482	0.099
151.900	-9.423	0.099
152.000	-29.689	0.099
152.100	-16.776	0.099
152.200	-10.584	0.099
152.300	-13.513	0.099
152.400	-15.900	0.099
152.500	-11.412	0.099
152.600	-29.939	0.099
152.700	-35.221	0.099
152.800	-30.960	0.099
152.900	-13.307	0.099
153.000	-11.258	0.099
153.100	-28.990	0.099
153.200	-14.259	0.099
153.300	-35.129	0.099
153.400	-20.159	0.099
153.500	-40.446	0.099
153.600	-5.160	0.099
153.700	-25.819	0.099
153.800	-12.188	0.099
153.900	-33.607	0.099
154.000	-11.582	0.099
154.100	-21.487	0.099
154.200	-12.768	0.099
154.300	-17.771	0.099
154.400	-26.263	0.099
154.500	-38.231	0.099
154.600	-23.842	0.099
154.700	-21.898	0.099
154.800	-14.989	0.099
154.900	-26.756	0.099
155.000	-9.477	0.099
155.100	-13.802	0.099
155.200	-12.675	0.099
155.300	-38.819	0.100
155.400	-10.943	0.099
155.500	-10.632	0.099
155.600	-26.418	0.099
155.700	-25.132	0.099
155.800	-25.640	0.099
155.900	-18.069	0.099
156.000	-23.288	0.099
156.100	-43.833	0.099
156.200	-17.326	0.099
156.300	-22.448	0.099
156.400	-39.814	0.099
156.500	-10.610	0.099
156.600	-8.126	0.099
156.700	-9.828	0.099
156.800	-26.605	0.099
156.900	-17.092	0.099
157.000	-28.327	0.099
157.100	-16.770	0.100
157.200	-18.208	0.099
157.300	-27.141	0.099
157.400	-29.266	0.099
157.500	-12.991	0.099
157.600	-12.996	0.099
157.700	-9.269	0.099
157.800	-40.230	0.099
157.900	-17.131	0.099
158.000	-8.319	0.099
158.100	-17.970	0.099
158.200	-27.910	0.099
158.300	-23.532	0.100
158.400	-21.692	0.099
158.500	-47.358	0.099
158.600	-15.779	0.099
158.700	-27.930	0.099
158.800	-23.633	0.099
158.900	-21.582	0.099
159.000	-15.498	0.099
159.100	-27.077	0.099
159.200	-17.692	0.099
159.300	-15.435	0.099
159.400	-38.777	0.099
159.500	-9.389	0.099
159.600	-20.307	0.099
159.700	-4.987	0.099
159.800	-23.807	0.099
159.900	-26.338	0.099
160.000	-21.166	0.099
160.100	-34.050	0.099
160.200	-39.388	0.099
160.300	-10.729	0.099
160.400	-44.114	0.099
160.500	-23.182	0.099
160.600	-16.347	0.099
160.700	-29.217	0.099
160.800	-23.330	0.099
160.900	-30.488	0.099
161.000	-10.808	0.099
161.100	-23.811	0.099
161.200	-21.042	0.099
161.300	-35.090	0.099
161.400	-19.626	0.099
161.500	-26.695	0.099
161.600	-22.238	0.099
161.700	-23.503	0.099
161.800	-22.013	0.099
161.900	-12.522	0.099
162.000	-29.239	0.099
162.100	-10.707	0.099
162.200	-11.819	0.099
162.300	-23.502	0.099
162.400	-38.723	0.099
162.500	-8.163	0.099
162.600	-18.293	0.099
162.700	-43.648	0.099
162.800	-31.735	0.099
162.900	-6.043	0.099
163.000	-14.097	0.099
163.100	-17.697	0.099
163.200	-4.831	0.099
163.300	3.504	0.099
163.400	-25.386	0.099
163.500	-20.557	0.099
163.600	-22.461	0.100
163.700	-29.454	0.099
163.800	-33.927	0.099
163.900	-18.997	0.099
164.000	-7.737	0.099
164.100	-24.678	0.099
164.200	-5.723	0.100
164.300	-24.342	0.100
164.400	-32.719	0.100
164.500	-36.224	0.099
164.600	-17.342	0.099
164.700	-17.230	0.099
164.800	-38.857	0.100
164.900	-15.923	0.099
165.000	-2.304	0.099
165.100	-55.894	0.099
165.200	-2.931	0.099
165.300	-35.240	0.100
165.400	-21.685	0.100
165.500	-19.268	0.099
165.600	-19.560	0.100
165.700	-13.319	0.099
165.800	-33.342	0.099
165.900	-13.343	0.099
166.000	-10.108	0.099
166.100	-23.568	0.100
166.200	-42.744	0.100
166.300	-47.703	0.099
166.400	-16.550	0.099
166.500	-9.765	0.100
166.600	-6.088	0.099
166.700	-23.004	0.099
166.800	-19.355	0.099
166.900	-36.456	0.099
167.000	-17.455	0.100
167.100	-9.049	0.100
167.200	-17.060	0.099
167.300	-28.441	0.099
167.400	-10.926	0.099
167.500	-35.192	0.099
167.600	-18.292	0.100
167.700	-6.530	0.099
167.800	-30.556	0.100
167.900	-24.467	0.099
168.000	-20.066	0.099
168.100	-15.779	0.099
168.200	-31.961	0.100
168.300	-3.648	0.099
168.400	-17.777	0.100
168.500	-24.034	0.100
168.600	-7.459	0.099
168.700	-35.822	0.100
168.800	-25.123	0.099
168.900	-5.258	0.099
169.000	-27.079	0.099
169.100	-14.909	0.100
169.200	-22.923	0.099
169.300	-46.690	0.099
169.400	-22.918	0.099
169.500	-9.488	0.099
169.600	-11.642	0.100
169.700	-31.403	0.099
169.800	-23.158	0.099
169.900	-22.945	0.099
170.000	-22.353	0.099
170.100	-36.517	0.100
170.200	-13.406	0.099
170.300	-17.261	0.099
170.400	-22.932	0.099
170.500	-23.324	0.099
170.600	-27.712	0.099
170.700	-13.273	0.099
170.800	-19.009	0.100
170.900	-17.012	0.099
171.000	-13.665	0.099
171.100	-25.711	0.099
171.200	-27.114	0.099
171.300	-35.487	0.100
171.400	-43.049	0.100
171.500	-24.351	0.099
171.600	-4.026	0.099
171.700	-23.960	0.099
171.800	-16.766	0.099
171.900	-26.736	0.099
172.000	-25.268	0.099
172.100	-10.389	0.099
172.200	-31.036	0.100
172.300	-18.744	0.099
172.400	-30.231	0.099
172.500	-21.721	0.099
172.600	-28.616	0.100
172.700	-3.807	0.099
172.800	-2.327	0.100
172.900	-16.984	0.099
173.000	-21.266	0.099
173.100	-30.705	0.099
173.200	-14.173	0.099
173.300	-13.715	0.100
173.400	-32.302	0.100
173.500	-23.589	0.099
173.600	-26.134	0.099
173.700	-5.847	0.099
173.800	-10.275	0.100
173.900	-21.505	0.099
174.000	-2.202	0.099
174.100	-9.122	0.100
174.200	-21.943	0.100
174.300	-35.313	0.099
174.400	-23.058	0.100
174.500	-6.549	0.099
174.600	-5.933	0.099
174.700	-32.192	0.099
174.800	-21.972	0.100
174.900	-19.724	0.100
175.000	-19.472	0.100
175.100	-23.710	0.100
175.200	-25.106	0.099
175.300	-22.366	0.100
175.400	-36.603	0.099
175.500	-18.719	0.099
175.600	-14.050	0.099
175.700	-8.074	0.100
175.800	-9.901	0.099
175.900	-40.713	0.099
176.000	-20.472	0.099
176.100	-30.986	0.099
176.200	-23.095	0.099
176.300	-43.688	0.099
176.400	-15.032	0.099
176.500	-11.930	0.100
176.600	-25.736	0.099
176.700	-27.575	0.099
176.800	-7.403	0.100
176.900	-19.967	0.099
177.000	-20.062	0.099
177.100	-22.877	0.099
177.200	-40.581	0.099
177.300	-9.049	0.099
177.400	-10.785	0.099
177.500	-10.381	0.099
177.600	-13.752	0.099
177.700	-24.507	0.099
177.800	-23.188	0.099
177.900	-29.194	0.100
178.000	-25.156	0.099
178.100	-27.719	0.099
178.200	-19.320	0.099
178.300	-9.701	0.099
178.400	5.748	0.100
178.500	-25.824	0.099
178.600	-18.184	0.099
178.700	-19.889	0.099
178.800	-26.764	0.099
178.900	-21.766	0.099
179.000	-14.450	0.099
179.100	-26.701	0.099
179.200	-19.496	0.099
179.300	-23.029	0.099
179.400	-19.601	0.099
179.500	-14.217	0.099
179.600	-13.999	0.099
179.700	-3.254	0.099
179.800	-0.998	0.099
179.900	-25.550	0.099
180.000	-31.095	0.099
180.100	-19.967	0.099
180.200	-5.748	0.100
180.300	-10.274	0.099
180.400	-10.556	0.099
180.500	-7.100	0.099
180.600	-10.631	0.099
180.700	8.024	0.099
180.800	7.298	0.099
180.900	12.644	0.099
181.000	28.389	0.099
181.100	20.587	0.099
181.200	24.179	0.099
181.300	35.883	0.100
181.400	33.143	0.099
181.500	10.615	0.099
181.600	33.583	0.099
181.700	37.490	0.099
181.800	42.153	0.099
181.900	32.668	0.099
182.000	46.602	0.099
182.100	29.402	0.099
182.200	39.002	0.099
182.300	27.801	0.100
182.400	33.717	0.100
182.500	54.997	0.099
182.600	45.104	0.099
182.700	43.394	0.099
182.800	50.914	0.099
182.900	46.813	0.099
183.000	27.480	0.099
183.100	68.096	0.099
183.200	31.509	0.099
183.300	39.441	0.099
183.400	44.209	0.100
183.500	34.361	0.099
183.600	39.152	0.099
183.700	35.702	0.099
183.800	40.309	0.099
183.900	31.799	0.099
184.000	18.718	0.099
184.100	25.781	0.099
184.200	48.348	0.099
184.300	54.192	0.099
184.400	28.183	0.100
184.500	20.990	0.099
184.600	44.748	0.099
184.700	32.114	0.099
184.800	18.791	0.099
184.900	18.501	0.100
185.000	34.553	0.099
185.100	21.482	0.100
185.200	15.117	0.099
185.300	42.908	0.100
185.400	41.294	0.099
185.500	44.909	0.100
185.600	24.936	0.099
185.700	29.648	0.099
185.800	36.226	0.099
185.900	33.840	0.099
186.000	26.714	0.100
186.100	43.429	0.099
186.200	40.959	0.099
186.300	38.272	0.099
186.400	39.124	0.100
186.500	20.945	0.099
186.600	32.683	0.100
186.700	52.488	0.099
186.800	35.898	0.100
186.900	33.212	0.100
187.000	34.955	0.099
187.100	44.866	0.099
187.200	33.329	0.099
187.300	49.208	0.099
187.400	49.486	0.099
187.500	41.805	0.100
187.600	45.776	0.099
187.700	53.906	0.100
187.800	65.971	0.100
187.900	80.106	0.100
188.000	57.108	0.099
188.100	69.848	0.100
188.200	54.218	0.100
188.300	38.614	0.099
188.400	31.135	0.099
188.500	53.129	0.099
188.600	55.896	0.099
188.700	78.853	0.099
188.800	67.517	0.099
188.900	80.064	0.099
189.000	52.693	0.100
189.100	72.038	0.100
189.200	55.009	0.099
189.300	60.763	0.099
189.400	77.252	0.099
189.500	71.954	0.099
189.600	62.702	0.100
189.700	53.084	0.099
189.800	84.303	0.100
189.900	70.844	0.100
190.000	73.305	0.100
190.100	68.068	0.100
190.200	88.243	0.100
190.300	54.844	0.100
190.400	68.139	0.099
190.500	68.218	0.100
190.600	68.212	0.099
190.700	85.602	0.099
190.800	71.893	0.100
190.900	67.679	0.100
191.000	71.531	0.100
191.100	75.490	0.099
191.200	74.207	0.099
191.300	87.379	0.100
191.400	97.188	0.100
191.500	84.192	0.099
191.600	74.942	0.099
191.700	88.238	0.099
191.800	82.483	0.100
191.900	95.809	0.100
192.000	85.858	0.099
192.100	92.167	0.100
192.200	74.520	0.100
192.300	95.503	0.100
192.400	83.796	0.100
192.500	87.435	0.099
192.600	83.394	0.100
192.700	90.885	0.099
192.800	82.886	0.100
192.900	79.662	0.099
193.000	81.560	0.100
193.100	84.728	0.099
193.200	97.698	0.100
193.300	81.451	0.099
193.400	96.131	0.099
193.500	83.419	0.100
193.600	88.652	0.099
193.700	69.126	0.100
193.800	104.776	0.100
193.900	94.170	0.099
194.000	100.062	0.099
194.100	113.666	0.099
194.200	96.369	0.100
194.300	82.037	0.100
194.400	86.593	0.100
194.500	92.806	0.099
194.600	90.450	0.099
194.700	79.550	0.100
194.800	106.700	0.099
194.900	88.159	0.099
195.000	110.920	0.100
195.100	100.506	0.099
195.200	80.725	0.100
195.300	93.827	0.100
195.400	91.304	0.100
195.500	81.625	0.100
195.600	92.855	0.100
195.700	110.709	0.099
195.800	96.878	0.100
195.900	75.662	0.099
196.000	91.089	0.100
196.100	96.108	0.099
196.200	91.162	0.099
196.300	76.357	0.100
196.400	100.335	0.099
196.500	115.486	0.100
196.600	84.412	0.100
196.700	106.136	0.100
196.800	83.258	0.100
196.900	97.667	0.100
197.000	82.280	0.099
197.100	85.353	0.100
197.200	102.344	0.099
197.300	84.075	0.100
197.400	72.404	0.100
197.500	86.758	0.099
197.600	120.923	0.099
197.700	89.676	0.100
197.800	78.487	0.100
197.900	80.601	0.100
198.000	75.281	0.100
198.100	102.815	0.099
198.200	91.898	0.099
198.300	97.217	0.100
198.400	95.583	0.099
198.500	94.042	0.099
198.600	101.486	0.100
198.700	102.689	0.100
198.800	74.814	0.100
198.900	88.854	0.100
199.000	95.099	0.100
199.100	85.364	0.099
199.200	91.592	0.099
199.300	105.238	0.099
199.400	101.184	0.100
199.500	80.445	0.099
199.600	73.529	0.100
199.700	97.610	0.100
199.800	102.236	0.100
199.900	115.637	0.100
200.000	106.920	0.099
200.100	82.643	0.099
200.200	100.189	0.100
200.300	95.350	0.100
200.400	75.949	0.100
200.500	92.574	0.100
200.600	113.690	0.100
200.700	104.654	0.099
200.800	77.159	0.100
200.900	77.500	0.100
201.000	80.180	0.100
201.100	89.460	0.100
201.200	96.871	0.100
201.300	76.859	0.099
201.400	73.067	0.100
201.500	96.915	0.099
201.600	89.110	0.100
201.700	86.142	0.100
201.800	88.446	0.099
201.900	104.950	0.100
202.000	89.055	0.099
202.100	73.413	0.100
202.200	77.601	0.099
202.300	105.610	0.100
202.400	76.198	0.100
202.500	99.926	0.099
202.600	91.489	0.099
202.700	84.955	0.100
202.800	83.054	0.099
202.900	70.746	0.100
203.000	103.087	0.100
203.100	102.067	0.100
203.200	79.655	0.100
203.300	82.579	0.099
203.400	93.883	0.100
203.500	77.542	0.099
203.600	76.131	0.099
203.700	108.425	0.100
203.800	86.610	0.099
203.900	103.931	0.099
204.000	74.732	0.099
204.100	87.448	0.099
204.200	102.355	0.100
204.300	106.637	0.100
204.400	107.735	0.099
204.500	96.001	0.099
204.600	81.821	0.099
204.700	85.294	0.099
204.800	85.563	0.099
204.900	95.565	0.099
205.000	84.797	0.100
205.100	79.519	0.100
205.200	104.680	0.100
205.300	80.657	0.099
205.400	92.777	0.099
205.500	102.074	0.099
205.600	97.170	0.099
205.700	92.366	0.099
205.800	101.172	0.099
205.900	94.068	0.100
206.000	92.303	0.099
206.100	84.046	0.099
206.200	85.094	0.099
206.300	85.172	0.099
206.400	92.698	0.100
206.500	79.616	0.099
206.600	102.304	0.099
206.700	94.228	0.100
206.800	96.570	0.100
206.900	77.822	0.100
207.000	70.907	0.099
207.100	119.224	0.099
207.200	97.370	0.100
207.300	98.655	0.099
207.400	85.892	0.100
207.500	105.349	0.100
207.600	81.131	0.100
207.700	89.343	0.099
207.800	86.342	0.099
207.900	91.914	0.100
208.000	92.115	0.099
208.100	94.563	0.100
208.200	89.828	0.099
208.300	83.348	0.099
208.400	100.129	0.099
208.500	73.556	0.099
208.600	86.778	0.099
208.700	83.912	0.099
208.800	90.619	0.100
208.900	94.890	0.099
209.000	94.541	0.099
209.100	89.695	0.099
209.200	90.336	0.099
209.300	71.238	0.099
209.400	82.054	0.099
209.500	93.843	0.099
209.600	95.621	0.099
209.700	92.451	0.099
209.800	102.234	0.099
209.900	101.155	0.099
210.000	88.667	0.099
210.100	110.572	0.099
210.200	92.508	0.099
210.300	82.286	0.099
210.400	74.635	0.099
210.500	97.552	0.099
210.600	84.220	0.099
210.700	96.236	0.099
210.800	82.750	0.099
210.900	90.286	0.099
211.000	95.284	0.099
211.100	111.025	0.099
211.200	88.812	0.099
211.300	89.916	0.099
211.400	78.689	0.099
211.500	75.620	0.099
211.600	88.054	0.099
211.700	90.739	0.099
211.800	86.947	0.099
211.900	84.812	0.099
212.000	87.652	0.099
212.100	82.301	0.099
212.200	100.348	0.099
212.300	87.053	0.099
212.400	87.659	0.099
212.500	93.104	0.100
212.600	84.347	0.099
212.700	76.886	0.099
212.800	89.371	0.099
212.900	94.837	0.099
213.000	69.921	0.099
213.100	82.683	0.099
213.200	99.667	0.099
213.300	106.862	0.099
213.400	78.863	0.099
213.500	97.701	0.099
213.600	91.582	0.099
213.700	90.251	0.099
213.800	92.442	0.100
213.900	85.929	0.099
214.000	95.849	0.099
214.100	74.682	0.099
214.200	81.581	0.099
214.300	90.841	0.099
214.400	81.164	0.099
214.500	87.853	0.099
214.600	91.745	0.099
214.700	102.276	0.100
214.800	78.935	0.100
214.900	95.833	0.099
215.000	104.666	0.100
215.100	85.898	0.099
215.200	90.787	0.100
215.300	87.390	0.099
215.400	81.849	0.099
215.500	75.823	0.099
215.600	97.440	0.099
215.700	97.267	0.099
215.800	63.241	0.100
215.900	98.124	0.099
216.000	95.595	0.099
216.100	59.625	0.099
216.200	83.701	0.099
216.300	90.655	0.099
216.400	80.167	0.099
216.500	81.541	0.099
216.600	93.883	0.099
216.700	70.007	0.099
216.800	92.842	0.099
216.900	105.731	0.099
217.000	71.993	0.099
217.100	90.683	0.099
217.200	112.064	0.099
217.300	107.008	0.100
217.400	106.147	0.099
217.500	89.577	0.100
217.600	69.922	0.099
217.700	78.958	0.100
217.800	110.995	0.099
217.900	90.294	0.100
218.000	101.241	0.099
218.100	110.095	0.099
218.200	69.874	0.099
218.300	72.200	0.099
218.400	80.121	0.099
218.500	96.911	0.100
218.600	94.133	0.100
218.700	104.385	0.099
218.800	72.865	0.100
218.900	108.135	0.099
219.000	90.066	0.099
219.100	87.012	0.099
219.200	93.640	0.099
219.300	60.606	0.099
219.400	98.116	0.100
219.500	91.206	0.099
219.600	99.456	0.099
219.700	63.221	0.100
219.800	102.083	0.099
219.900	78.562	0.099
220.000	90.405	0.099
220.100	98.048	0.099
220.200	79.680	0.100
220.300	91.477	0.099
220.400	74.933	0.100
220.500	81.242	0.100
220.600	82.336	0.099
220.700	94.572	0.099
220.800	103.249	0.099
220.900	75.957	0.099
221.000	85.514	0.099
221.100	91.414	0.099
221.200	106.183	0.099
221.300	87.742	0.099
221.400	63.276	0.100
221.500	92.886	0.099
221.600	106.955	0.100
221.700	84.504	0.100
221.800	75.921	0.099
221.900	85.382	0.099
222.000	92.604	0.099
222.100	92.895	0.099
222.200	96.609	0.099
222.300	105.570	0.100
222.400	84.648	0.100
222.500	92.713	0.099
222.600	76.331	0.099
222.700	82.374	0.099
222.800	75.702	0.099
222.900	100.392	0.099
223.000	105.735	0.099
223.100	82.389	0.099
223.200	83.685	0.100
223.300	81.459	0.100
223.400	95.838	0.099
223.500	89.343	0.099
223.600	86.458	0.099
223.700	88.614	0.100
223.800	83.538	0.099
223.900	91.792	0.099
224.000	93.045	0.099
224.100	91.997	0.099
224.200	72.743	0.099
224.300	105.430	0.099
224.400	100.905	0.100
224.500	86.558	0.099
224.600	82.308	0.099
224.700	87.499	0.099
224.800	97.711	0.099
224.900	86.556	0.099
225.000	86.456	0.100
225.100	89.719	0.099
225.200	77.209	0.099
225.300	89.601	0.100
225.400	89.595	0.100
225.500	88.727	0.100
225.600	84.322	0.099
225.700	95.242	0.099
225.800	90.943	0.099
225.900	75.626	0.099
226.000	74.912	0.099
226.100	90.107	0.099
226.200	92.713	0.100
226.300	88.028	0.100
226.400	82.998	0.100
226.500	84.458	0.100
226.600	95.875	0.099
226.700	98.585	0.100
226.800	94.003	0.099
226.900	78.326	0.099
227.000	84.362	0.099
227.100	79.011	0.100
227.200	61.402	0.100
227.300	93.757	0.099
227.400	90.137	0.100
227.500	90.065	0.100
227.600	74.249	0.099
227.700	93.874	0.100
227.800	83.151	0.100
227.900	92.018	0.099
228.000	77.021	0.099
228.100	68.840	0.100
228.200	92.528	0.099
228.300	82.181	0.099
228.400	99.710	0.100
228.500	83.433	0.099
228.600	84.299	0.100
228.700	96.906	0.099
228.800	82.946	0.099
228.900	101.461	0.099
229.000	88.351	0.099
229.100	94.411	0.099
229.200	102.538	0.100
229.300	82.448	0.099
229.400	71.189	0.099
229.500	84.940	0.099
229.600	89.220	0.099
229.700	93.115	0.099
229.800	80.193	0.099
229.900	87.162	0.099
230.000	69.164	0.099
230.100	89.148	0.100
230.200	72.565	0.099
230.300	81.375	0.100
230.400	96.389	0.099
230.500	93.035	0.100
230.600	84.452	0.100
230.700	75.791	0.100
230.800	85.941	0.100
230.900	97.761	0.099
231.000	81.378	0.099
231.100	92.778	0.100
231.200	90.415	0.099
231.300	79.645	0.100
231.400	77.893	0.099
231.500	71.429	0.099
231.600	92.616	0.099
231.700	101.237	0.099
231.800	77.629	0.099
231.900	95.564	0.099
232.000	88.121	0.099
232.100	91.553	0.099
232.200	98.018	0.100
232.300	90.043	0.099
232.400	83.355	0.099
232.500	89.212	0.099
232.600	86.767	0.099
232.700	83.037	0.100
232.800	87.854	0.099
232.900	89.052	0.099
233.000	56.427	0.099
233.100	91.633	0.100
233.200	103.443	0.099
233.300	86.146	0.099
233.400	99.274	0.099
233.500	77.207	0.100
233.600	88.904	0.099
233.700	80.974	0.100
233.800	88.466	0.099
233.900	91.379	0.100
234.000	86.012	0.099
234.100	86.420	0.100
234.200	72.927	0.099
234.300	90.074	0.100
234.400	83.496	0.100
234.500	82.117	0.099
234.600	82.869	0.099
234.700	100.304	0.099
234.800	87.118	0.100
234.900	91.171	0.100
235.000	74.501	0.099
235.100	101.653	0.099
235.200	102.767	0.099
235.300	54.347	0.099
235.400	90.384	0.100
235.500	95.128	0.099
235.600	85.483	0.099
235.700	72.343	0.099
235.800	78.719	0.099
235.900	105.038	0.099
236.000	107.992	0.099
236.100	92.315	0.099
236.200	81.494	0.099
236.300	86.191	0.100
236.400	81.655	0.099
236.500	88.811	0.100
236.600	93.907	0.099
236.700	92.658	0.099
236.800	92.421	0.100
236.900	63.091	0.099
237.000	104.751	0.099
237.100	103.430	0.099
237.200	89.077	0.099
237.300	83.861	0.100
237.400	84.768	0.099
237.500	65.372	0.099
237.600	79.894	0.099
237.700	100.585	0.100
237.800	90.736	0.099
237.900	84.902	0.099
238.000	87.623	0.099
238.100	94.143	0.100
238.200	87.297	0.099
238.300	76.874	0.099
238.400	65.933	0.100
238.500	72.895	0.099
238.600	93.408	0.100
238.700	111.667	0.099
238.800	95.974	0.099
238.900	94.995	0.100
239.000	93.440	0.099
239.100	84.729	0.099
239.200	82.711	0.099
239.300	93.542	0.099
239.400	86.632	0.100
239.500	84.158	0.099
239.600	96.804	0.099
239.700	81.618	0.099
239.800	96.346	0.099
239.900	85.382	0.100
240.000	91.795	0.099
240.100	97.058	0.100
240.200	80.089	0.099
240.300	72.732	0.099
240.400	65.433	0.099
240.500	76.532	0.100
240.600	63.285	0.099
240.700	41.402	0.099
240.800	25.643	0.100
240.900	30.619	0.099
241.000	27.464	0.099
241.100	42.815	0.099
241.200	32.413	0.099
241.300	35.990	0.099
241.400	27.437	0.099
241.500	10.708	0.100
241.600	16.682	0.099
241.700	18.800	0.099
241.800	-6.218	0.099
241.900	4.765	0.099
242.000	20.294	0.099
242.100	14.875	0.099
242.200	20.120	0.099
242.300	13.250	0.099
242.400	-7.221	0.099
242.500	11.328	0.099
242.600	-13.010	0.099
242.700	-3.258	0.099
242.800	-5.223	0.099
242.900	-12.787	0.099
243.000	-22.937	0.100
243.100	-23.480	0.099
243.200	-6.684	0.100
243.300	-1.658	0.099
243.400	0.278	0.099
243.500	-4.687	0.099
243.600	-18.382	0.099
243.700	-10.119	0.100
243.800	-30.293	0.099
243.900	-29.186	0.100
244.000	-16.029	0.099
244.100	-5.405	0.099
244.200	-7.174	0.100
244.300	-19.507	0.099
244.400	-11.155	0.099
244.500	-12.875	0.100
244.600	-0.848	0.099
244.700	-20.942	0.099
244.800	-16.523	0.100
244.900	-5.110	0.099
245.000	-18.185	0.100
245.100	-18.657	0.100
245.200	-3.982	0.099
245.300	-26.262	0.100
245.400	-24.459	0.100
245.500	-23.799	0.099
245.600	-2.726	0.099
245.700	-11.372	0.100
245.800	1.592	0.099
245.900	-8.663	0.099
246.000	-26.226	0.099
246.100	-28.668	0.100
246.200	-5.926	0.100
246.300	-4.028	0.100
246.400	-40.611	0.099
246.500	-9.493	0.100
246.600	-18.331	0.099
246.700	1.292	0.100
246.800	-21.823	0.100
246.900	-22.764	0.099
247.000	-16.386	0.099
247.100	-8.889	0.100
247.200	-26.733	0.100
247.300	-24.113	0.100
247.400	-5.989	0.099
247.500	-30.117	0.099
247.600	-23.052	0.100
247.700	-8.648	0.099
247.800	-29.136	0.099
247.900	-12.272	0.099
248.000	-6.432	0.099
248.100	-2.299	0.099
248.200	-3.864	0.099
248.300	-32.391	0.100
248.400	-33.514	0.099
248.500	-6.487	0.099
248.600	-21.591	0.099
248.700	-9.960	0.099
248.800	-30.258	0.099
248.900	2.444	0.099
249.000	-17.472	0.099
249.100	-19.426	0.099
249.200	-15.019	0.099
249.300	-44.591	0.099
249.400	-24.841	0.099
249.500	-15.169	0.099
249.600	13.078	0.099
249.700	-1.552	0.099
249.800	-32.006	0.099
249.900	-22.306	0.099
250.000	-2.257	0.099
250.100	-25.793	0.099
250.200	-18.588	0.099
250.300	-6.765	0.099
250.400	-5.348	0.099
250.500	-31.665	0.100
250.600	-36.365	0.099
250.700	-15.736	0.099
250.800	-9.077	0.099
250.900	-20.103	0.099
251.000	-19.129	0.099
251.100	-19.487	0.099
251.200	0.877	0.099
251.300	-19.762	0.100
251.400	-39.506	0.099
251.500	-15.837	0.099
251.600	-30.154	0.099
251.700	-5.129	0.099
251.800	-19.494	0.099
251.900	-14.925	0.099
252.000	-19.736	0.100
252.100	-27.810	0.099
252.200	-28.894	0.099
252.300	-29.505	0.099
252.400	-7.491	0.100
252.500	-29.988	0.099
252.600	-13.355	0.099
252.700	-22.711	0.100
252.800	-14.975	0.099
252.900	-17.118	0.099
253.000	-13.019	0.099
253.100	-43.220	0.099
253.200	-28.532	0.099
253.300	-17.396	0.099
253.400	-1.212	0.099
253.500	-15.770	0.099
253.600	-23.489	0.099
253.700	-17.891	0.100
253.800	-31.296	0.099
253.900	-17.724	0.099
254.000	-33.741	0.099
254.100	-29.650	0.100
254.200	-14.765	0.100
254.300	-22.185	0.099
254.400	-13.977	0.099
254.500	-14.825	0.099
254.600	-11.887	0.099
254.700	-32.596	0.099
254.800	-19.436	0.099
254.900	-29.238	0.099
255.000	-35.067	0.100
255.100	-23.760	0.099
255.200	-41.523	0.099
255.300	-12.918	0.099
255.400	-28.737	0.099
255.500	-11.317	0.099
255.600	-35.001	0.099
255.700	-12.173	0.099
255.800	-35.551	0.100
255.900	-16.735	0.099
256.000	-30.979	0.100
256.100	-38.861	0.100
256.200	-25.123	0.099
256.300	-14.961	0.100
256.400	-43.254	0.100
256.500	-7.921	0.099
256.600	-31.984	0.100
256.700	-29.555	0.099
256.800	-36.267	0.099
256.900	-11.990	0.099
257.000	-20.552	0.099
257.100	-27.774	0.100
257.200	-25.755	0.099
257.300	-30.791	0.099
257.400	-12.668	0.099
257.500	-49.307	0.099
257.600	-35.245	0.099
257.700	-12.762	0.099
257.800	-22.547	0.099
257.900	-12.414	0.099
258.000	-17.774	0.099
258.100	-23.115	0.099
258.200	-32.101	0.099
258.300	-39.359	0.099
258.400	-20.175	0.099
258.500	-24.133	0.099
258.600	-43.112	0.099
258.700	-27.598	0.099
258.800	-33.137	0.100
258.900	-19.814	0.099
259.000	-10.361	0.099
259.100	-36.125	0.099
259.200	-32.806	0.099
259.300	-21.472	0.099
259.400	-38.065	0.099
259.500	-37.536	0.099
259.600	-22.093	0.100
259.700	-40.403	0.099
259.800	-39.133	0.099
259.900	-38.343	0.099
260.000	-35.915	0.099
260.100	-34.139	0.099
260.200	-16.473	0.099
260.300	-28.980	0.099
260.400	-38.477	0.099
260.500	-37.224	0.099
260.600	-32.578	0.100
260.700	-40.619	0.099
260.800	-35.821	0.099
260.900	-15.456	0.099
261.000	-50.208	0.099
261.100	-19.565	0.099
261.200	-19.160	0.099
261.300	-43.373	0.099
261.400	-23.832	0.100
261.500	-46.056	0.099
261.600	-33.010	0.099
261.700	-33.531	0.099
261.800	-19.580	0.099
261.900	-20.835	0.099
262.000	-55.421	0.099
262.100	-32.827	0.099
262.200	-31.302	0.099
262.300	-35.219	0.099
262.400	-38.017	0.099
262.500	-26.551	0.099
262.600	-29.404	0.099
262.700	-27.321	0.099
262.800	-24.438	0.099
262.900	-51.693	0.099
263.000	-52.224	0.099
263.100	-31.414	0.099
263.200	-30.809	0.099
263.300	-41.039	0.099
263.400	-29.976	0.099
263.500	-18.623	0.099
263.600	-38.776	0.099
263.700	-21.414	0.099
263.800	-26.067	0.099
263.900	-46.167	0.099
264.000	-32.496	0.099
264.100	-39.506	0.099
264.200	-34.539	0.099
264.300	-32.598	0.099
264.400	-37.464	0.099
264.500	-42.243	0.099
264.600	-31.035	0.099
264.700	-33.816	0.099
264.800	-41.755	0.099
264.900	-29.376	0.099
265.000	-41.393	0.099
265.100	-39.381	0.099
265.200	-41.414	0.099
265.300	-43.986	0.099
265.400	-40.244	0.099
265.500	-37.184	0.099
265.600	-46.770	0.099
265.700	-41.372	0.099
265.800	-37.713	0.099
265.900	-42.619	0.099
266.000	-37.294	0.099
266.100	-22.375	0.099
266.200	-38.566	0.099
266.300	-55.925	0.099
266.400	-49.326	0.099
266.500	-37.033	0.099
266.600	-27.790	0.099
266.700	-59.623	0.099
266.800	-41.391	0.099
266.900	-33.344	0.099
267.000	-41.213	0.099
267.100	-39.170	0.099
267.200	-37.891	0.099
267.300	-56.771	0.099
267.400	-55.811	0.099
267.500	-27.583	0.099
267.600	-41.799	0.099
267.700	-37.206	0.099
267.800	-34.123	0.099
267.900	-42.261	0.099
268.000	-46.173	0.099
268.100	-50.471	0.099
268.200	-41.923	0.099
268.300	-43.801	0.099
268.400	-38.347	0.100
268.500	-43.548	0.099
268.600	-48.199	0.099
268.700	-47.648	0.099
268.800	-43.734	0.099
268.900	-33.573	0.099
269.000	-21.499	0.099
269.100	-35.988	0.099
269.200	-35.778	0.100
269.300	-39.288	0.099
269.400	-37.762	0.099
269.500	-45.354	0.099
269.600	-50.150	0.099
269.700	-40.463	0.099
269.800	-53.536	0.099
269.900	-22.032	0.099
270.000	-64.621	0.099
270.100	-47.522	0.099
270.200	-38.827	0.099
270.300	-32.581	0.099
270.400	-33.890	0.099
270.500	-33.178	0.099
270.600	-64.121	0.099
270.700	-51.225	0.099
270.800	-63.354	0.099
270.900	-31.120	0.099
271.000	-47.420	0.099
271.100	-38.354	0.099
271.200	-43.804	0.099
271.300	-35.242	0.099
271.400	-61.015	0.099
271.500	-36.461	0.099
271.600	-37.262	0.099
271.700	-35.305	0.099
271.800	-45.142	0.099
271.900	-21.394	0.099
272.000	-34.124	0.099
272.100	-53.595	0.099
272.200	-56.454	0.099
272.300	-56.539	0.099
272.400	-40.063	0.099
272.500	-44.403	0.099
272.600	-29.215	0.099
272.700	-33.067	0.099
272.800	-52.256	0.099
272.900	-45.774	0.099
273.000	-42.893	0.099
273.100	-22.242	0.099
273.200	-61.081	0.099
273.300	-40.913	0.099
273.400	-32.806	0.099
273.500	-41.980	0.099
273.600	-40.029	0.099
273.700	-38.132	0.099
273.800	-50.540	0.099
273.900	-52.996	0.099
274.000	-51.386	0.099
274.100	-57.843	0.099
274.200	-45.079	0.099
274.300	-39.760	0.099
274.400	-33.582	0.099
274.500	-31.183	0.099
274.600	-24.321	0.099
274.700	-39.253	0.099
274.800	-56.351	0.099
274.900	-52.649	0.099
275.000	-44.762	0.099
275.100	-45.023	0.099
275.200	-36.414	0.099
275.300	-38.412	0.099
275.400	-41.576	0.099
275.500	-33.678	0.099
275.600	-40.247	0.100
275.700	-28.225	0.099
275.800	-47.381	0.099
275.900	-40.786	0.099
276.000	-58.862	0.099
276.100	-46.112	0.099
276.200	-37.842	0.099
276.300	-65.824	0.099
276.400	-45.755	0.099
276.500	-63.036	0.099
276.600	-38.040	0.099
276.700	-22.695	0.099
276.800	-32.443	0.099
276.900	-32.851	0.099
277.000	-27.062	0.099
277.100	-33.956	0.099
277.200	-52.086	0.099
277.300	-61.604	0.099
277.400	-39.110	0.099
277.500	-58.658	0.099
277.600	-35.312	0.099
277.700	-50.595	0.099
277.800	-33.787	0.099
277.900	-40.363	0.099
278.000	-51.135	0.099
278.100	-58.364	0.099
278.200	-28.779	0.099
278.300	-39.262	0.099
278.400	-43.217	0.099
278.500	-29.733	0.099
278.600	-33.424	0.099
278.700	-39.651	0.099
278.800	-33.568	0.099
278.900	-35.317	0.099
279.000	-38.325	0.099
279.100	-53.845	0.099
279.200	-57.370	0.099
279.300	-30.627	0.099
279.400	-32.971	0.099
279.500	-35.471	0.099
279.600	-19.046	0.100
279.700	-51.168	0.099
279.800	-48.654	0.099
279.900	-59.094	0.099
280.000	-52.353	0.099
280.100	-33.277	0.099
280.200	-29.697	0.099
280.300	-33.224	0.099
280.400	-20.648	0.099
280.500	-44.404	0.099
280.600	-43.148	0.099
280.700	-46.224	0.099
280.800	-45.644	0.099
280.900	-26.486	0.099
281.000	-58.142	0.099
281.100	-49.496	0.099
281.200	-43.147	0.099
281.300	-16.333	0.100
281.400	-75.912	0.099
281.500	-46.903	0.099
281.600	-48.988	0.099
281.700	-21.482	0.099
281.800	-48.116	0.099
281.900	-36.194	0.099
282.000	-44.999	0.099
282.100	-34.746	0.099
282.200	-31.996	0.099
282.300	-38.917	0.099
282.400	-31.488	0.099
282.500	-35.680	0.100
282.600	-48.168	0.099
282.700	-40.732	0.099
282.800	-56.829	0.099
282.900	-51.083	0.099
283.000	-41.184	0.099
283.100	-55.258	0.099
283.200	-38.677	0.099
283.300	-40.270	0.099
283.400	-43.009	0.099
283.500	-68.886	0.099
283.600	-41.809	0.100
283.700	-29.076	0.099
283.800	-43.093	0.099
283.900	-30.779	0.099
284.000	-23.627	0.099
284.100	-42.044	0.099
284.200	-53.795	0.099
284.300	-39.732	0.099
284.400	-56.541	0.100
284.500	-34.810	0.100
284.600	-29.968	0.099
284.700	-69.672	0.099
284.800	-49.022	0.099
284.900	-27.185	0.099
285.000	-31.598	0.099
285.100	-26.749	0.099
285.200	-44.768	0.099
285.300	-56.682	0.099
285.400	-56.282	0.099
285.500	-46.119	0.099
285.600	-38.321	0.099
285.700	-55.607	0.099
285.800	-20.432	0.099
285.900	-20.236	0.099
286.000	-30.993	0.099
286.100	-47.500	0.099
286.200	-28.080	0.099
286.300	-23.445	0.099
286.400	-39.455	0.099
286.500	-39.479	0.099
286.600	-37.274	0.099
286.700	-43.466	0.099
286.800	-44.077	0.099
286.900	-44.201	0.099
287.000	-12.994	0.100
287.100	-36.896	0.099
287.200	-55.515	0.099
287.300	-54.118	0.099
287.400	-65.669	0.099
287.500	-16.319	0.099
287.600	-47.036	0.099
287.700	-51.772	0.099
287.800	-30.900	0.100
287.900	-20.487	0.099
288.000	-41.769	0.100
288.100	-44.357	0.099
288.200	-29.106	0.100
288.300	-41.789	0.099
288.400	-51.099	0.099
288.500	-44.498	0.099
288.600	-42.695	0.100
288.700	-42.894	0.099
288.800	-37.712	0.099
288.900	-31.813	0.100
289.000	-23.721	0.099
289.100	-29.023	0.099
289.200	-34.568	0.099
289.300	-38.431	0.099
289.400	-44.420	0.099
289.500	-60.363	0.099
289.600	-53.471	0.099
289.700	-47.950	0.099
289.800	-38.351	0.099
289.900	-34.658	0.099
290.000	-37.432	0.099
290.100	-27.275	0.100
290.200	-11.968	0.099
290.300	-42.673	0.099
290.400	-27.176	0.099
290.500	-19.313	0.099
290.600	-27.707	0.099
290.700	-32.820	0.099
290.800	-32.071	0.099
290.900	-43.402	0.099
291.000	-49.559	0.100
291.100	-48.869	0.099
291.200	-45.036	0.100
291.300	-24.548	0.099
291.400	-25.542	0.100
291.500	-42.721	0.099
291.600	-54.561	0.099
291.700	-25.170	0.100
291.800	-46.090	0.099
291.900	-46.275	0.100
292.000	-19.411	0.099
292.100	-35.136	0.100
292.200	-33.505	0.100
292.300	-54.376	0.099
292.400	-45.479	0.099
292.500	-42.784	0.099
292.600	-52.847	0.099
292.700	-37.033	0.099
292.800	-33.808	0.099
292.900	-36.203	0.099
293.000	-38.716	0.099
293.100	-25.415	0.099
293.200	-24.056	0.099
293.300	-33.083	0.099
293.400	-52.152	0.099
293.500	-35.439	0.099
293.600	-60.069	0.100
293.700	-37.946	0.099
293.800	-29.684	0.099
293.900	-26.905	0.100
294.000	-55.394	0.099
294.100	-26.239	0.099
294.200	-41.796	0.099
294.300	-27.201	0.099
294.400	-40.502	0.099
294.500	-53.470	0.099
294.600	-27.735	0.099
294.700	-39.817	0.100
294.800	-37.957	0.099
294.900	-28.577	0.099
295.000	-59.692	0.100
295.100	-35.800	0.099
295.200	-39.633	0.099
295.300	-25.538	0.099
295.400	-18.298	0.099
295.500	-33.902	0.099
295.600	-39.172	0.099
295.700	-38.159	0.099
295.800	-17.144	0.100
295.900	-42.697	0.099
296.000	-38.604	0.099
296.100	-34.216	0.099
296.200	-30.023	0.100
296.300	-27.654	0.099
296.400	-49.416	0.099
296.500	-47.884	0.099
296.600	-32.889	0.099
296.700	-52.397	0.099
296.800	-31.868	0.099
296.900	-9.161	0.099
297.000	-24.299	0.099
297.100	-31.793	0.099
297.200	-29.543	0.099
297.300	-39.031	0.099
297.400	-49.558	0.099
297.500	-32.075	0.100
297.600	-39.157	0.099
297.700	-19.909	0.099
297.800	-32.721	0.099
297.900	-55.035	0.099
298.000	-38.364	0.100
298.100	-51.580	0.099
298.200	-31.872	0.100
298.300	-37.469	0.099
298.400	-31.736	0.099
298.500	-34.455	0.099
298.600	-44.839	0.099
298.700	-39.615	0.099
298.800	-30.423	0.099
298.900	-35.821	0.099
299.000	-36.045	0.099
299.100	-25.649	0.099
299.200	-57.186	0.099
299.300	-47.979	0.099
299.400	-23.314	0.099
299.500	-44.838	0.099
299.600	-35.237	0.099
299.700	-32.639	0.099
299.800	-49.151	0.099
299.900	-48.359	0.099
300.000	-21.516	0.099
300.100	-46.341	0.099
300.200	-15.014	0.099
300.300	-46.025	0.100
300.400	-41.439	0.099
300.500	-27.772	0.099
300.600	-32.844	0.100
300.700	-11.477	0.100
300.800	-36.199	0.100
300.900	-42.150	0.099
301.000	-49.545	0.099
301.100	-49.031	0.099
301.200	-32.128	0.100
301.300	-15.177	0.100
301.400	-12.935	0.099
301.500	-36.495	0.100
301.600	-31.519	0.100
301.700	-15.328	0.099
301.800	-41.777	0.100
301.900	-44.920	0.099
302.000	-33.493	0.099
302.100	-27.759	0.100
302.200	-47.463	0.099
302.300	-27.244	0.099
302.400	-43.364	0.099
302.500	-34.233	0.099
302.600	-13.316	0.099
302.700	-30.108	0.099
302.800	-37.932	0.099
302.900	-39.113	0.099
303.000	-37.031	0.099
303.100	-62.832	0.099
303.200	-19.915	0.099
303.300	-25.250	0.099
303.400	-39.923	0.100
303.500	-16.411	0.099
303.600	-29.849	0.100
303.700	-49.461	0.099
303.800	-28.851	0.100
303.900	-26.833	0.099
304.000	-19.437	0.100
304.100	-53.470	0.099
304.200	-26.461	0.099
304.300	-39.052	0.099
304.400	-35.578	0.100
304.500	-48.072	0.099
304.600	-26.902	0.100
304.700	-35.171	0.099
304.800	-24.919	0.100
304.900	-21.321	0.100
305.000	-33.281	0.099
305.100	-49.778	0.099
305.200	-31.895	0.100
305.300	-33.749	0.100
305.400	-35.413	0.100
305.500	-24.841	0.099
305.600	-48.247	0.099
305.700	-35.629	0.099
305.800	-31.420	0.100
305.900	-33.323	0.099
306.000	-21.945	0.099
306.100	-53.091	0.099
306.200	-24.025	0.100
306.300	-32.072	0.099
306.400	-27.895	0.100
306.500	-30.072	0.100
306.600	-33.269	0.100
306.700	-33.920	0.099
306.800	-50.693	0.099
306.900	-26.799	0.099
307.000	-42.455	0.099
307.100	-47.287	0.099
307.200	-6.342	0.099
307.300	-18.677	0.100
307.400	-24.366	0.100
307.500	-34.450	0.100
307.600	-37.574	0.099
307.700	-48.253	0.099
307.800	-39.269	0.099
307.900	-43.678	0.099
308.000	-27.066	0.100
308.100	-18.215	0.100
308.200	-22.940	0.100
308.300	-52.852	0.099
308.400	-49.388	0.100
308.500	-46.961	0.099
308.600	-14.707	0.100
308.700	-17.814	0.099
308.800	-26.893	0.100
308.900	-46.150	0.099
309.000	-53.078	0.099
309.100	-28.026	0.099
309.200	-16.783	0.100
309.300	-28.645	0.099
309.400	-36.920	0.100
309.500	-42.693	0.099
309.600	-39.682	0.100
309.700	-36.276	0.100
309.800	-37.140	0.099
309.900	-27.487	0.100
310.000	-27.995	0.099
310.100	-38.121	0.099
310.200	-37.686	0.100
310.300	-41.189	0.100
310.400	-61.185	0.099
310.500	-33.999	0.099
310.600	1.369	0.100
310.700	-21.424	0.100
310.800	-35.096	0.099
310.900	-34.368	0.099
311.000	-43.551	0.100
311.100	-24.910	0.100
311.200	-38.584	0.099
311.300	-29.421	0.099
311.400	-46.653	0.099
311.500	-27.138	0.100
311.600	-20.943	0.099
311.700	-54.059	0.100
311.800	-54.144	0.100
311.900	-17.428	0.099
312.000	-43.743	0.099
312.100	-49.244	0.099
312.200	-37.003	0.099
312.300	-26.507	0.099
312.400	-29.044	0.100
312.500	-29.552	0.100
312.600	-47.099	0.099
312.700	-34.037	0.099
312.800	-24.267	0.099
312.900	-16.485	0.099
313.000	-25.574	0.099
313.100	-36.151	0.099
313.200	-37.804	0.099
313.300	-37.711	0.099
313.400	-49.699	0.099
313.500	-37.223	0.100
313.600	-27.647	0.100
313.700	-19.032	0.099
313.800	-23.539	0.099
313.900	-41.074	0.099
314.000	-36.996	0.099
314.100	-33.739	0.100
314.200	-54.576	0.099
314.300	-31.200	0.099
314.400	-26.605	0.099
314.500	-16.266	0.099
314.600	-19.798	0.099
314.700	-26.594	0.099
314.800	-33.975	0.099
314.900	-35.011	0.099
315.000	-30.635	0.099
315.100	-31.972	0.100
315.200	-47.978	0.099
315.300	-38.945	0.099
315.400	-39.049	0.099
315.500	-20.970	0.100
315.600	-25.974	0.100
315.700	-33.628	0.099
315.800	-41.586	0.099
315.900	-20.898	0.099
316.000	-29.669	0.100
316.100	-23.226	0.099
316.200	-31.760	0.099
316.300	-44.314	0.099
316.400	-38.984	0.099
316.500	-45.922	0.099
316.600	-53.623	0.100
316.700	-26.567	0.100
316.800	-17.953	0.099
316.900	-28.542	0.099
317.000	-19.328	0.099
317.100	-38.134	0.100
317.200	-11.776	0.099
317.300	-38.993	0.099
317.400	-23.415	0.099
317.500	-4.276	0.099
317.600	-40.458	0.099
317.700	-42.315	0.099
317.800	-41.051	0.100
317.900	-44.273	0.099
318.000	-29.282	0.099
318.100	-16.091	0.099
318.200	-41.258	0.100
318.300	-41.556	0.099
318.400	-39.181	0.099
318.500	-10.310	0.099
318.600	-25.379	0.099
318.700	-33.050	0.099
318.800	-39.536	0.099
318.900	-20.777	0.099
319.000	-34.194	0.100
319.100	-17.910	0.100
319.200	-31.395	0.099
319.300	-41.822	0.100
319.400	-30.893	0.099
319.500	-29.429	0.100
319.600	-27.673	0.099
319.700	-36.585	0.100
319.800	-47.514	0.099
319.900	-37.865	0.100
320.000	-33.731	0.100
320.100	-40.126	0.099
320.200	-36.134	0.100
320.300	-47.375	0.100
320.400	-24.432	0.100
320.500	-19.002	0.100
320.600	-28.883	0.100
320.700	-58.145	0.099
320.800	-26.222	0.100
320.900	-28.402	0.099
321.000	-40.718	0.099
321.100	-38.418	0.100
321.200	-32.119	0.099
321.300	-28.385	0.099
321.400	-44.309	0.099
321.500	-42.023	0.099
321.600	-2.419	0.099
321.700	-32.554	0.100
321.800	-23.840	0.099
321.900	-26.007	0.100
322.000	-34.519	0.099
322.100	-38.550	0.099
322.200	-12.890	0.099
322.300	-46.144	0.099
322.400	-45.817	0.099
322.500	-27.084	0.099
322.600	-24.100	0.100
322.700	-37.520	0.100
322.800	-29.373	0.099
322.900	-25.570	0.099
323.000	-15.262	0.099
323.100	-37.313	0.099
323.200	-38.347	0.100
323.300	-39.106	0.099
323.400	-15.507	0.099
323.500	-14.691	0.099
323.600	-16.760	0.099
323.700	-27.563	0.099
323.800	-31.275	0.100
323.900	-35.009	0.100
324.000	-33.704	0.099
324.100	-41.346	0.100
324.200	-20.939	0.100
324.300	-18.713	0.099
324.400	-32.890	0.100
324.500	-51.373	0.100
324.600	-35.483	0.100
324.700	-31.328	0.100
324.800	-25.818	0.100
324.900	-39.878	0.100
325.000	-24.569	0.100
325.100	-44.180	0.099
325.200	-24.336	0.099
325.300	-32.432	0.099
325.400	-11.431	0.100
325.500	-34.974	0.099
325.600	-37.903	0.100
325.700	-28.412	0.099
325.800	-3.343	0.100
325.900	-23.495	0.100
326.000	-27.183	0.100
326.100	-29.538	0.099
326.200	-37.218	0.100
326.300	-26.943	0.100
326.400	-16.443	0.099
326.500	-39.037	0.100
326.600	-20.561	0.100
326.700	-24.628	0.100
326.800	-36.600	0.099
326.900	-28.294	0.099
327.000	-34.571	0.099
327.100	-29.067	0.100
327.200	-23.806	0.099
327.300	-30.319	0.099
327.400	-23.686	0.099
327.500	-4.353	0.099
327.600	-28.168	0.100
327.700	-27.526	0.099
327.800	-39.505	0.099
327.900	-28.497	0.099
328.000	-22.692	0.100
328.100	-40.389	0.099
328.200	-37.012	0.099
328.300	-43.028	0.099
328.400	-7.103	0.099
328.500	-21.464	0.099
328.600	-23.852	0.099
328.700	-19.002	0.100
328.800	-17.796	0.099
328.900	-27.229	0.099
329.000	-40.358	0.099
329.100	-36.084	0.099
329.200	-23.824	0.099
329.300	-28.344	0.099
329.400	-40.009	0.099
329.500	-27.609	0.099
329.600	-16.194	0.099
329.700	-17.029	0.099
329.800	-27.478	0.099
329.900	-24.276	0.099
330.000	-41.325	0.099
330.100	-23.939	0.099
330.200	-29.287	0.099
330.300	-33.587	0.099
330.400	-19.990	0.099
330.500	-27.947	0.099
330.600	-13.299	0.099
330.700	16.389	0.100
330.800	23.011	0.100
330.900	-9.494	0.099
331.000	-7.266	0.099
331.100	34.981	0.099
331.200	24.029	0.099
331.300	-0.738	0.099
331.400	30.585	0.099
331.500	37.053	0.099
331.600	18.171	0.099
331.700	44.613	0.099
331.800	23.777	0.099
331.900	34.336	0.099
332.000	32.345	0.099
332.100	10.326	0.099
332.200	45.228	0.099
332.300	50.675	0.099
332.400	38.812	0.099
332.500	49.306	0.099
332.600	32.659	0.099
332.700	20.950	0.099
332.800	36.863	0.099
332.900	20.866	0.099
333.000	40.513	0.099
333.100	44.244	0.099
333.200	66.562	0.099
333.300	32.104	0.099
333.400	38.117	0.099
333.500	41.602	0.099
333.600	49.752	0.099
333.700	22.748	0.099
333.800	26.570	0.099
333.900	60.508	0.099
334.000	44.209	0.100
334.100	36.049	0.100
334.200	31.742	0.099
334.300	37.539	0.099
334.400	10.658	0.099
334.500	25.873	0.099
334.600	21.156	0.100
334.700	9.007	0.099
334.800	32.676	0.099
334.900	31.286	0.099
335.000	29.079	0.099
335.100	36.150	0.099
335.200	14.377	0.099
335.300	12.550	0.099
335.400	34.972	0.099
335.500	21.653	0.099
335.600	37.469	0.099
335.700	16.535	0.099
335.800	18.023	0.099
335.900	33.445	0.099
336.000	8.382	0.099
336.100	36.764	0.099
336.200	40.067	0.100
336.300	40.065	0.099
336.400	46.672	0.099
336.500	30.798	0.099
336.600	44.532	0.100
336.700	36.339	0.099
336.800	46.220	0.099
336.900	38.929	0.099
337.000	32.965	0.099
337.100	27.577	0.099
337.200	39.499	0.099
337.300	59.266	0.100
337.400	37.346	0.099
337.500	45.537	0.100
337.600	27.131	0.099
337.700	59.646	0.099
337.800	39.730	0.100
337.900	66.253	0.099
338.000	43.372	0.100
338.100	38.709	0.099
338.200	54.818	0.099
338.300	34.280	0.099
338.400	51.825	0.099
338.500	65.872	0.099
338.600	66.939	0.099
338.700	31.288	0.099
338.800	21.923	0.099
338.900	54.002	0.099
339.000	66.892	0.099
339.100	86.913	0.100
339.200	74.138	0.099
339.300	68.314	0.099
339.400	68.191	0.100
339.500	75.886	0.099
339.600	67.841	0.100
339.700	65.572	0.099
339.800	74.917	0.099
339.900	59.683	0.099
340.000	53.936	0.099
340.100	75.602	0.099
340.200	98.769	0.100
340.300	66.675	0.099
340.400	85.089	0.099
340.500	81.151	0.099
340.600	82.952	0.099
340.700	90.519	0.099
340.800	76.807	0.099
340.900	83.700	0.099
341.000	87.174	0.099
341.100	92.094	0.099
341.200	78.859	0.099
341.300	77.310	0.099
341.400	84.954	0.099
341.500	84.812	0.099
341.600	73.476	0.099
341.700	109.026	0.099
341.800	91.768	0.099
341.900	97.295	0.099
342.000	106.177	0.100
342.100	97.593	0.099
342.200	74.714	0.099
342.300	104.846	0.099
342.400	90.959	0.099
342.500	100.559	0.099
342.600	114.744	0.099
342.700	75.625	0.099
342.800	94.524	0.099
342.900	90.462	0.099
343.000	101.722	0.099
343.100	111.480	0.099
343.200	93.158	0.099
343.300	103.819	0.099
343.400	119.063	0.099
343.500	101.459	0.099
343.600	101.188	0.099
343.700	84.933	0.100
343.800	105.609	0.099
343.900	92.939	0.099
344.000	101.436	0.099
344.100	112.954	0.100
344.200	130.080	0.099
344.300	105.691	0.099
344.400	97.882	0.100
344.500	115.147	0.099
344.600	130.047	0.100
344.700	100.787	0.099
344.800	113.711	0.100
344.900	103.514	0.099
345.000	108.098	0.100
345.100	94.859	0.099
345.200	110.509	0.099
345.300	106.028	0.100
345.400	94.874	0.099
345.500	121.445	0.100
345.600	117.455	0.099
345.700	100.629	0.100
345.800	109.741	0.099
345.900	90.849	0.099
346.000	116.159	0.099
346.100	131.626	0.099
346.200	99.308	0.099
346.300	100.403	0.099
346.400	107.927	0.100
346.500	94.790	0.099
346.600	121.173	0.099
346.700	115.684	0.100
346.800	97.987	0.099
346.900	98.695	0.099
347.000	103.542	0.099
347.100	104.907	0.100
347.200	108.523	0.099
347.300	117.882	0.100
347.400	111.731	0.099
347.500	107.303	0.099
347.600	90.253	0.099
347.700	84.667	0.099
347.800	103.581	0.099
347.900	102.177	0.099
348.000	80.627	0.100
348.100	101.118	0.099
348.200	104.534	0.099
348.300	92.545	0.099
348.400	106.352	0.099
348.500	121.111	0.099
348.600	99.719	0.099
348.700	102.417	0.100
348.800	100.161	0.099
348.900	108.923	0.099
349.000	94.272	0.099
349.100	98.993	0.099
349.200	128.516	0.100
349.300	108.402	0.099
349.400	96.263	0.099
349.500	103.493	0.100
349.600	123.873	0.099
349.700	108.508	0.100
349.800	93.839	0.099
349.900	102.719	0.099
350.000	127.862	0.099
350.100	81.222	0.100
350.200	100.561	0.099
350.300	101.509	0.100
350.400	103.287	0.099
350.500	102.779	0.099
350.600	98.715	0.099
350.700	103.248	0.099
350.800	121.175	0.099
350.900	96.672	0.099
351.000	108.737	0.099
351.100	112.243	0.099
351.200	95.050	0.099
351.300	100.984	0.099
351.400	99.775	0.099
351.500	100.625	0.099
351.600	116.464	0.099
351.700	126.025	0.100
351.800	92.290	0.100
351.900	84.498	0.100
352.000	119.116	0.099
352.100	99.992	0.099
352.200	96.551	0.099
352.300	81.295	0.099
352.400	84.524	0.099
352.500	89.659	0.099
352.600	106.121	0.099
352.700	115.760	0.100
352.800	112.174	0.099
352.900	99.177	0.099
353.000	88.067	0.099
353.100	115.926	0.099
353.200	95.124	0.099
353.300	88.036	0.099
353.400	95.337	0.099
353.500	112.339	0.099
353.600	85.377	0.099
353.700	71.960	0.099
353.800	96.558	0.099
353.900	104.986	0.099
354.000	87.326	0.099
354.100	115.834	0.099
354.200	99.000	0.099
354.300	68.881	0.099
354.400	114.814	0.099
354.500	106.312	0.099
354.600	109.146	0.099
354.700	102.594	0.099
354.800	97.758	0.099
354.900	96.247	0.099
355.000	86.121	0.099
355.100	103.627	0.099
355.200	104.809	0.099
355.300	95.764	0.100
355.400	94.818	0.099
355.500	92.979	0.099
355.600	102.378	0.099
355.700	96.737	0.099
355.800	105.439	0.099
355.900	106.467	0.099
356.000	94.488	0.099
356.100	95.147	0.099
356.200	107.267	0.099
356.300	97.422	0.099
356.400	102.220	0.099
356.500	107.603	0.099
356.600	107.852	0.099
356.700	92.988	0.099
356.800	99.701	0.099
356.900	97.912	0.099
357.000	88.937	0.099
357.100	104.596	0.099
357.200	124.541	0.099
357.300	83.741	0.099
357.400	100.071	0.099
357.500	92.842	0.099
357.600	116.141	0.099
357.700	93.047	0.099
357.800	113.556	0.099
357.900	99.884	0.099
358.000	116.986	0.099
358.100	80.522	0.099
358.200	110.982	0.099
358.300	107.671	0.099
358.400	97.118	0.099
358.500	95.285	0.099
358.600	76.257	0.099
358.700	90.668	0.099
358.800	102.674	0.099
358.900	96.416	0.099
359.000	104.628	0.099
359.100	106.585	0.099
359.200	101.041	0.099
359.300	119.805	0.099
359.400	104.437	0.099
359.500	100.630	0.099
359.600	81.241	0.099
359.700	92.264	0.099
359.800	103.359	0.099
359.900	104.746	0.099
360.000	116.338	0.099
360.100	105.453	0.099
360.200	71.061	0.099
360.300	103.590	0.099
360.400	91.125	0.099
360.500	107.199	0.099
360.600	110.904	0.099
360.700	87.233	0.099
360.800	94.483	0.099
360.900	100.016	0.099
361.000	93.797	0.099
361.100	89.551	0.099
361.200	101.530	0.099
361.300	90.589	0.099
361.400	80.245	0.099
361.500	92.932	0.099
361.600	108.067	0.099
361.700	88.768	0.099
361.800	99.188	0.099
361.900	90.957	0.099
362.000	109.928	0.099
362.100	94.828	0.099
362.200	102.032	0.099
362.300	102.503	0.099
362.400	114.399	0.099
362.500	94.724	0.099
362.600	104.829	0.099
362.700	105.962	0.100
362.800	95.281	0.099
362.900	83.528	0.099
363.000	95.151	0.099
363.100	84.989	0.099
363.200	80.635	0.099
363.300	96.043	0.099
363.400	101.600	0.099
363.500	96.921	0.099
363.600	90.779	0.099
363.700	100.670	0.099
363.800	122.709	0.099
363.900	98.837	0.099
364.000	100.276	0.099
364.100	100.057	0.100
364.200	103.601	0.099
364.300	79.461	0.099
364.400	88.142	0.099
364.500	120.566	0.099
364.600	96.658	0.099
364.700	106.086	0.099
364.800	101.181	0.099
364.900	107.249	0.099
365.000	109.722	0.099
365.100	86.013	0.099
365.200	97.134	0.099
365.300	99.259	0.099
365.400	102.609	0.099
365.500	107.248	0.100
365.600	93.305	0.099
365.700	95.853	0.099
365.800	86.712	0.099
365.900	102.582	0.099
366.000	92.493	0.099
366.100	85.124	0.099
366.200	109.319	0.099
366.300	85.087	0.099
366.400	97.792	0.099
366.500	96.624	0.099
366.600	92.085	0.099
366.700	99.886	0.099
366.800	102.044	0.099
366.900	106.300	0.099
367.000	88.738	0.099
367.100	87.663	0.099
367.200	96.515	0.099
367.300	98.738	0.099
367.400	93.812	0.099
367.500	95.879	0.099
367.600	110.946	0.099
367.700	93.918	0.100
367.800	116.850	0.099
367.900	83.040	0.099
368.000	98.680	0.099
368.100	86.073	0.099
368.200	76.930	0.099
368.300	96.455	0.099
368.400	86.718	0.099
368.500	89.560	0.099
368.600	104.237	0.099
368.700	96.673	0.099
368.800	84.504	0.099
368.900	88.227	0.099
369.000	95.020	0.099
369.100	105.271	0.099
369.200	108.411	0.100
369.300	94.880	0.099
369.400	97.716	0.099
369.500	78.599	0.099
369.600	107.903	0.099
369.700	107.258	0.099
369.800	118.837	0.099
369.900	104.319	0.099
370.000	86.046	0.099
370.100	109.732	0.099
370.200	99.522	0.099
370.300	106.102	0.099
370.400	101.493	0.099
370.500	104.187	0.099
370.600	85.178	0.099
370.700	99.475	0.099
370.800	104.903	0.099
370.900	85.210	0.099
371.000	84.613	0.099
371.100	122.956	0.099
371.200	112.116	0.099
371.300	88.050	0.100
371.400	89.239	0.099
371.500	94.991	0.099
371.600	102.549	0.099
371.700	88.177	0.099
371.800	88.079	0.099
371.900	70.665	0.099
372.000	104.030	0.099
372.100	104.488	0.099
372.200	72.216	0.099
372.300	104.156	0.099
372.400	95.335	0.099
372.500	95.538	0.099
372.600	93.659	0.100
372.700	96.373	0.099
372.800	88.829	0.099
372.900	71.559	0.099
373.000	97.494	0.099
373.100	102.991	0.099
373.200	89.458	0.099
373.300	92.505	0.099
373.400	90.565	0.099
373.500	90.629	0.099
373.600	82.142	0.099
373.700	88.609	0.099
373.800	87.203	0.099
373.900	87.876	0.099
374.000	105.864	0.099
374.100	92.333	0.099
374.200	96.402	0.099
374.300	102.334	0.099
374.400	88.904	0.099
374.500	95.860	0.099
374.600	92.292	0.099
374.700	99.884	0.099
374.800	99.270	0.099
374.900	102.117	0.099
375.000	84.937	0.099
375.100	91.786	0.099
375.200	102.705	0.099
375.300	77.661	0.099
375.400	86.384	0.099
375.500	95.342	0.099
375.600	106.822	0.099
375.700	68.912	0.099
375.800	91.547	0.099
375.900	86.886	0.099
376.000	120.168	0.099
376.100	97.106	0.099
376.200	96.335	0.099
376.300	84.266	0.099
376.400	89.077	0.099
376.500	90.657	0.099
376.600	93.914	0.099
376.700	98.250	0.099
376.800	108.248	0.099
376.900	82.117	0.100
377.000	76.398	0.100
377.100	99.967	0.099
377.200	104.013	0.099
377.300	87.952	0.099
377.400	93.511	0.099
377.500	102.434	0.099
377.600	89.499	0.099
377.700	75.935	0.099
377.800	81.088	0.099
377.900	99.538	0.099
378.000	103.143	0.099
378.100	86.385	0.099
378.200	107.225	0.099
378.300	111.727	0.099
378.400	100.510	0.099
378.500	91.695	0.100
378.600	87.655	0.099
378.700	82.847	0.099
378.800	93.307	0.099
378.900	91.756	0.099
379.000	95.942	0.099
379.100	86.694	0.099
379.200	83.001	0.099
379.300	95.509	0.099
379.400	85.030	0.099
379.500	86.407	0.099
379.600	94.418	0.099
379.700	94.872	0.099
379.800	86.786	0.099
379.900	88.142	0.099
380.000	90.547	0.099
380.100	97.687	0.099
380.200	89.410	0.099
380.300	90.368	0.099
380.400	104.331	0.099
380.500	95.779	0.099
380.600	88.109	0.099
380.700	98.097	0.099
380.800	88.386	0.099
380.900	92.298	0.099
381.000	90.983	0.099
381.100	96.248	0.099
381.200	97.718	0.099
381.300	73.997	0.099
381.400	95.611	0.099
381.500	95.275	0.099
381.600	106.759	0.099
381.700	85.514	0.099
381.800	85.525	0.099
381.900	107.530	0.099
382.000	99.446	0.099
382.100	90.559	0.099
382.200	85.541	0.100
382.300	88.327	0.099
382.400	80.851	0.099
382.500	96.336	0.099
382.600	86.556	0.099
382.700	95.726	0.099
382.800	87.594	0.099
382.900	73.293	0.099
383.000	93.309	0.099
383.100	94.031	0.099
383.200	95.749	0.099
383.300	100.519	0.099
383.400	89.705	0.099
383.500	81.896	0.099
383.600	108.772	0.099
383.700	93.364	0.099
383.800	76.242	0.099
383.900	88.508	0.099
384.000	97.485	0.099
384.100	98.601	0.099
384.200	97.203	0.099
384.300	94.761	0.099
384.400	96.627	0.099
384.500	84.471	0.099
384.600	85.033	0.099
384.700	107.538	0.099
384.800	90.103	0.099
384.900	77.724	0.099
385.000	88.198	0.099
385.100	104.155	0.099
385.200	82.168	0.099
385.300	86.850	0.099
385.400	96.541	0.099
385.500	85.938	0.099
385.600	107.326	0.099
385.700	93.997	0.099
385.800	94.990	0.099
385.900	87.740	0.099
386.000	95.858	0.099
386.100	85.294	0.099
386.200	95.643	0.099
386.300	104.595	0.099
386.400	92.454	0.099
386.500	85.622	0.099
386.600	90.843	0.099
386.700	98.880	0.099
386.800	112.111	0.099
386.900	99.091	0.099
387.000	105.045	0.099
387.100	89.462	0.099
387.200	70.117	0.099
387.300	100.451	0.099
387.400	95.419	0.099
387.500	90.276	0.099
387.600	73.386	0.099
387.700	74.005	0.099
387.800	83.395	0.099
387.900	92.361	0.099
388.000	89.653	0.099
388.100	91.364	0.099
388.200	81.844	0.099
388.300	90.131	0.099
388.400	96.907	0.099
388.500	84.764	0.099
388.600	103.794	0.099
388.700	89.997	0.099
388.800	85.479	0.099
388.900	85.704	0.099
389.000	110.308	0.099
389.100	93.450	0.099
389.200	98.987	0.099
389.300	90.576	0.099
389.400	84.399	0.099
389.500	92.153	0.099
389.600	104.405	0.099
389.700	81.341	0.099
389.800	120.908	0.099
389.900	97.271	0.099
390.000	71.261	0.099
390.100	82.327	0.099
390.200	102.502	0.099
390.300	84.223	0.099
390.400	69.090	0.099
390.500	67.871	0.099
390.600	70.506	0.099
390.700	55.671	0.099
390.800	38.669	0.099
390.900	29.648	0.099
391.000	30.028	0.099
391.100	43.753	0.099
391.200	21.203	0.099
391.300	2.343	0.099
391.400	21.476	0.099
391.500	10.729	0.099
391.600	-13.615	0.099
391.700	-2.712	0.099
391.800	-15.246	0.099
391.900	15.596	0.099
392.000	1.871	0.099
392.100	-8.535	0.099
392.200	-7.572	0.099
392.300	-17.724	0.099
392.400	-26.630	0.099
392.500	-10.219	0.099
392.600	-6.752	0.099
392.700	-41.645	0.099
392.800	-24.615	0.099
392.900	-8.410	0.099
393.000	-43.415	0.099
393.100	-19.299	0.099
393.200	-11.489	0.099
393.300	-1.229	0.099
393.400	-8.406	0.099
393.500	-25.840	0.099
393.600	-24.057	0.099
393.700	-49.419	0.099
393.800	-11.346	0.099
393.900	-35.317	0.099
394.000	-25.141	0.099
394.100	-22.900	0.099
394.200	-14.288	0.099
394.300	-30.292	0.099
394.400	-10.440	0.099
394.500	-37.548	0.099
394.600	-48.083	0.099
394.700	-19.270	0.099
394.800	-22.256	0.099
394.900	-22.038	0.099
395.000	-26.344	0.099
395.100	-30.232	0.099
395.200	-20.696	0.099
395.300	-26.894	0.099
395.400	-18.258	0.099
395.500	-5.073	0.099
395.600	-29.735	0.099
395.700	-36.881	0.099
395.800	-17.537	0.099
395.900	-14.653	0.099
396.000	-14.733	0.099
396.100	-39.253	0.099
396.200	-16.695	0.099
396.300	-28.571	0.099
396.400	-6.187	0.099
396.500	-25.637	0.099
396.600	-18.253	0.099
396.700	-29.769	0.099
396.800	-24.369	0.099
396.900	-24.819	0.099
397.000	-10.702	0.099
397.100	-30.097	0.099
397.200	-35.841	0.099
397.300	-17.013	0.099
397.400	-27.591	0.099
397.500	-24.555	0.099
397.600	-20.543	0.099
397.700	-15.725	0.099
397.800	-28.999	0.099
397.900	-33.728	0.099
398.000	-23.351	0.099
398.100	-24.699	0.099
398.200	-33.438	0.099
398.300	-27.535	0.099
398.400	-40.032	0.099
398.500	-28.092	0.099
398.600	-14.869	0.099
398.700	-31.377	0.099
398.800	-41.642	0.099
398.900	-9.159	0.099
399.000	-13.780	0.099
399.100	-36.060	0.099
399.200	-37.471	0.099
399.300	-24.343	0.099
399.400	-32.714	0.099
399.500	-25.933	0.099
399.600	-28.286	0.099
399.700	-24.083	0.099
399.800	3.482	0.099
399.900	-36.750	0.099
400.000	-18.921	0.099
400.100	-25.372	0.099
400.200	-39.880	0.099
400.300	-40.114	0.099
400.400	-26.143	0.099
400.500	-28.995	0.099
400.600	-13.740	0.099
400.700	-39.932	0.099
400.800	-18.287	0.100
400.900	-41.652	0.099
401.000	-27.829	0.099
401.100	-33.964	0.099
401.200	-42.177	0.099
401.300	-37.024	0.099
401.400	-11.335	0.099
401.500	-12.064	0.099
401.600	-33.205	0.099
401.700	-25.204	0.099
401.800	-21.385	0.099
401.900	-23.915	0.099
402.000	-27.589	0.099
402.100	-20.189	0.099
402.200	-30.802	0.100
402.300	-18.155	0.099
402.400	-34.746	0.100
402.500	-26.987	0.099
402.600	-30.958	0.099
402.700	-25.702	0.099
402.800	-22.407	0.099
402.900	-55.188	0.099
403.000	-15.725	0.099
403.100	-14.363	0.099
403.200	-38.247	0.099
403.300	-44.081	0.099
403.400	-24.301	0.099
403.500	-33.387	0.099
403.600	-19.565	0.099
403.700	-54.008	0.099
403.800	-59.897	0.099
403.900	-42.004	0.099
404.000	-28.154	0.099
404.100	-32.973	0.099
404.200	-37.459	0.099
404.300	-29.536	0.099
404.400	-27.253	0.099
404.500	-42.424	0.099
404.600	-11.667	0.099
404.700	-47.811	0.099
404.800	-21.338	0.099
404.900	-33.585	0.099
405.000	-42.218	0.099
405.100	-41.048	0.099
405.200	-32.541	0.099
405.300	-29.802	0.099
405.400	-33.745	0.099
405.500	-36.304	0.099
405.600	-42.439	0.099
405.700	-35.609	0.099
405.800	-23.401	0.099
405.900	-32.884	0.099
406.000	-18.453	0.099
406.100	-42.576	0.099
406.200	-33.994	0.099
406.300	-29.327	0.099
406.400	-41.057	0.099
406.500	-21.967	0.099
406.600	-39.811	0.099
406.700	-43.112	0.099
406.800	-33.977	0.099
406.900	-33.320	0.099
407.000	-45.395	0.099
407.100	-42.186	0.099
407.200	-31.718	0.099
407.300	-19.045	0.099
407.400	-47.215	0.099
407.500	-44.518	0.099
407.600	-30.896	0.099
407.700	-49.375	0.099
407.800	-26.360	0.099
407.900	-33.804	0.099
408.000	-42.406	0.099
408.100	-38.550	0.099
408.200	-32.612	0.099
408.300	-32.971	0.099
408.400	-39.269	0.099
408.500	-47.950	0.099
408.600	-42.035	0.099
408.700	-62.405	0.099
408.800	-31.743	0.099
408.900	-35.566	0.099
409.000	-27.966	0.099
409.100	-11.650	0.099
409.200	-48.007	0.099
409.300	-39.186	0.099
409.400	-42.848	0.099
409.500	-41.054	0.099
409.600	-60.705	0.099
409.700	-41.902	0.099
409.800	-46.193	0.099
409.900	-45.443	0.099
410.000	-33.313	0.099
410.100	-48.305	0.099
410.200	-33.391	0.099
410.300	-49.627	0.099
410.400	-29.965	0.099
410.500	-40.271	0.099
410.600	-40.529	0.099
410.700	-47.070	0.099
410.800	-60.658	0.099
410.900	-64.077	0.099
411.000	-39.197	0.099
411.100	-36.133	0.099
411.200	-33.576	0.099
411.300	-36.527	0.099
411.400	-48.813	0.099
411.500	-41.632	0.099
411.600	-43.658	0.099
411.700	-29.675	0.099
411.800	-52.504	0.099
411.900	-44.832	0.099
412.000	-37.636	0.099
412.100	-25.972	0.099
412.200	-51.681	0.099
412.300	-52.730	0.099
412.400	-33.009	0.099
412.500	-44.658	0.099
412.600	-49.045	0.099
412.700	-37.578	0.099
412.800	-47.482	0.099
412.900	-36.837	0.099
413.000	-49.022	0.099
413.100	-46.547	0.099
413.200	-57.606	0.099
413.300	-45.135	0.099
413.400	-29.130	0.099
413.500	-47.282	0.099
413.600	-47.344	0.099
413.700	-43.251	0.099
413.800	-48.231	0.099
413.900	-44.914	0.099
414.000	-51.050	0.099
414.100	-37.271	0.099
414.200	-35.449	0.099
414.300	-48.444	0.099
414.400	-47.095	0.099
414.500	-49.053	0.099
414.600	-39.285	0.099
414.700	-44.520	0.099
414.800	-38.729	0.099
414.900	-55.710	0.099
415.000	-34.962	0.099
415.100	-46.110	0.099
415.200	-41.245	0.099
415.300	-37.129	0.099
415.400	-49.443	0.099
415.500	-42.690	0.099
415.600	-62.494	0.099
415.700	-41.558	0.099
415.800	-50.629	0.099
415.900	-48.430	0.099
416.000	-38.693	0.099
416.100	-37.330	0.099
416.200	-58.669	0.099
416.300	-33.470	0.099
416.400	-50.186	0.099
416.500	-44.489	0.099
416.600	-51.232	0.099
416.700	-41.701	0.099
416.800	-47.143	0.099
416.900	-50.708	0.099
417.000	-38.393	0.099
417.100	-53.387	0.099
417.200	-52.073	0.099
417.300	-43.085	0.099
417.400	-46.962	0.099
417.500	-40.286	0.099
417.600	-53.800	0.099
417.700	-49.161	0.099
417.800	-50.562	0.099
417.900	-59.719	0.099
418.000	-55.412	0.099
418.100	-34.851	0.099
418.200	-70.711	0.099
418.300	-53.902	0.099
418.400	-58.390	0.099
418.500	-28.574	0.099
418.600	-51.445	0.099
418.700	-49.745	0.099
418.800	-40.070	0.099
418.900	-58.403	0.099
419.000	-46.673	0.099
419.100	-65.626	0.099
419.200	-43.181	0.099
419.300	-40.460	0.099
419.400	-58.253	0.099
419.500	-51.706	0.099
419.600	-35.989	0.099
419.700	-55.478	0.099
419.800	-39.919	0.099
419.900	-45.888	0.099
420.000	-51.866	0.099
420.100	-45.654	0.099
420.200	-57.830	0.099
420.300	-43.378	0.099
420.400	-47.050	0.099
420.500	-36.571	0.099
420.600	-26.754	0.099
420.700	-47.092	0.099
420.800	-35.299	0.099
420.900	-74.819	0.099
421.000	-43.024	0.099
421.100	-49.871	0.099
421.200	-54.656	0.099
421.300	-57.734	0.099
421.400	-42.381	0.099
421.500	-52.063	0.099
421.600	-57.388	0.099
421.700	-51.631	0.099
421.800	-61.083	0.099
421.900	-59.656	0.099
422.000	-53.871	0.099
422.100	-46.846	0.099
422.200	-80.306	0.099
422.300	-46.531	0.099
422.400	-44.570	0.099
422.500	-45.177	0.099
422.600	-27.892	0.099
422.700	-48.499	0.099
422.800	-44.836	0.099
422.900	-46.519	0.099
423.000	-60.462	0.099
423.100	-41.762	0.099
423.200	-45.675	0.099
423.300	-53.885	0.099
423.400	-44.490	0.099
423.500	-60.918	0.099
423.600	-46.108	0.099
423.700	-39.738	0.099
423.800	-48.287	0.099
423.900	-47.958	0.099
424.000	-41.268	0.099
424.100	-41.625	0.099
424.200	-54.031	0.099
424.300	-47.593	0.099
424.400	-44.504	0.099
424.500	-73.106	0.099
424.600	-59.491	0.099
424.700	-48.774	0.099
424.800	-47.961	0.099
424.900	-40.217	0.099
425.000	-41.175	0.099
425.100	-51.199	0.099
425.200	-49.863	0.099
425.300	-62.731	0.099
425.400	-62.309	0.099
425.500	-37.165	0.099
425.600	-44.415	0.099
425.700	-42.483	0.099
425.800	-62.869	0.099
425.900	-46.510	0.099
426.000	-49.376	0.099
426.100	-46.046	0.099
426.200	-33.091	0.099
426.300	-42.469	0.099
426.400	-42.880	0.099
426.500	-70.156	0.099
426.600	-61.198	0.099
426.700	-45.682	0.099
426.800	-51.109	0.099
426.900	-51.360	0.099
427.000	-59.976	0.099
427.100	-55.092	0.099
427.200	-51.593	0.099
427.300	-41.950	0.099
427.400	-46.394	0.099
427.500	-45.194	0.099
427.600	-46.666	0.099
427.700	-56.554	0.099
427.800	-41.239	0.099
427.900	-46.675	0.099
428.000	-44.060	0.099
428.100	-54.731	0.099
428.200	-45.030	0.099
428.300	-37.236	0.099
428.400	-53.667	0.099
428.500	-48.060	0.099
428.600	-28.629	0.099
428.700	-45.826	0.099
428.800	-70.962	0.099
428.900	-48.587	0.099
429.000	-47.197	0.099
429.100	-48.347	0.099
429.200	-52.608	0.099
429.300	-44.096	0.099
429.400	-50.676	0.099
429.500	-45.678	0.099
429.600	-33.653	0.099
429.700	-53.091	0.099
429.800	-46.286	0.099
429.900	-49.731	0.099
430.000	-37.122	0.099
430.100	-57.844	0.099
430.200	-47.756	0.099
430.300	-49.227	0.099
430.400	-59.245	0.099
430.500	-49.764	0.099
430.600	-39.772	0.099
430.700	-53.553	0.099
430.800	-47.497	0.099
430.900	-51.905	0.099
431.000	-49.320	0.099
431.100	-32.784	0.099
431.200	-34.574	0.099
431.300	-35.149	0.099
431.400	-50.223	0.099
431.500	-57.029	0.099
431.600	-60.418	0.099
431.700	-47.599	0.099
431.800	-40.496	0.099
431.900	-60.840	0.099
432.000	-46.704	0.099
432.100	-40.881	0.099
432.200	-47.488	0.099
432.300	-46.303	0.099
432.400	-39.422	0.099
432.500	-34.119	0.099
432.600	-47.429	0.099
432.700	-53.316	0.099
432.800	-55.287	0.099
432.900	-31.501	0.099
433.000	-59.522	0.099
433.100	-48.885	0.099
433.200	-40.138	0.099
433.300	-43.165	0.099
433.400	-58.102	0.099
433.500	-34.932	0.099
433.600	-43.544	0.099
433.700	-52.220	0.099
433.800	-38.748	0.099
433.900	-50.523	0.099
434.000	-46.133	0.099
434.100	-52.857	0.099
434.200	-43.282	0.099
434.300	-46.356	0.099
434.400	-46.375	0.099
434.500	-57.939	0.099
434.600	-38.629	0.099
434.700	-42.593	0.099
434.800	-43.206	0.099
434.900	-44.145	0.099
435.000	-36.990	0.099
435.100	-50.378	0.099
435.200	-40.459	0.099
435.300	-64.774	0.099
435.400	-48.703	0.099
435.500	-55.224	0.099
435.600	-54.731	0.099
435.700	-47.378	0.099
435.800	-43.598	0.099
435.900	-44.908	0.099
436.000	-50.268	0.099
436.100	-53.683	0.099
436.200	-45.882	0.099
436.300	-38.209	0.099
436.400	-60.918	0.099
436.500	-44.774	0.099
436.600	-53.595	0.099
436.700	-42.376	0.099
436.800	-40.602	0.099
436.900	-26.241	0.099
437.000	-23.368	0.099
437.100	-36.687	0.099
437.200	-26.655	0.099
437.300	-41.871	0.099
437.400	-36.193	0.099
437.500	-40.991	0.099
437.600	-40.197	0.099
437.700	-42.451	0.099
437.800	-44.954	0.099
437.900	-54.423	0.099
438.000	-35.204	0.099
438.100	-33.995	0.099
438.200	-55.858	0.099
438.300	-55.252	0.099
438.400	-39.616	0.099
438.500	-54.291	0.099
438.600	-26.094	0.099
438.700	-33.586	0.099
438.800	-41.265	0.099
438.900	-51.616	0.099
439.000	-48.529	0.099
439.100	-28.595	0.099
439.200	-35.824	0.099
439.300	-62.804	0.099
439.400	-32.159	0.099
439.500	-33.970	0.099
439.600	-55.300	0.099
439.700	-42.903	0.099
439.800	-63.594	0.099
439.900	-31.508	0.099
440.000	-40.920	0.099
440.100	-37.508	0.099
440.200	-41.274	0.099
440.300	-23.356	0.099
440.400	-62.500	0.099
440.500	-37.661	0.099
440.600	-39.004	0.099
440.700	-36.201	0.099
440.800	-53.129	0.099
440.900	-17.550	0.099
441.000	-58.512	0.099
441.100	-34.467	0.099
441.200	-42.964	0.099
441.300	-50.057	0.099
441.400	-55.935	0.099
441.500	-53.279	0.099
441.600	-15.284	0.099
441.700	-51.753	0.099
441.800	-35.731	0.099
441.900	-39.215	0.099
442.000	-32.174	0.099
442.100	-48.126	0.099
442.200	-33.418	0.099
442.300	-55.731	0.099
442.400	-44.742	0.099
442.500	-42.614	0.099
442.600	-39.007	0.099
442.700	-34.900	0.099
442.800	-31.929	0.099
442.900	-17.466	0.099
443.000	-43.377	0.099
443.100	-34.613	0.099
443.200	-41.542	0.099
443.300	-29.390	0.099
443.400	-43.810	0.099
443.500	-29.238	0.099
443.600	-36.742	0.099
443.700	-36.359	0.099
443.800	-50.143	0.099
443.900	-41.856	0.099
444.000	-56.075	0.099
444.100	-25.657	0.099
444.200	-33.752	0.099
444.300	-36.889	0.099
444.400	-40.516	0.099
444.500	-34.198	0.099
444.600	-51.283	0.099
444.700	-33.401	0.099
444.800	-44.418	0.099
444.900	-36.330	0.099
445.000	-37.789	0.099
445.100	-39.941	0.099
445.200	-45.500	0.099
445.300	-44.397	0.099
445.400	-54.010	0.099
445.500	-49.224	0.099
445.600	-40.759	0.099
445.700	-48.768	0.099
445.800	-36.880	0.099
445.900	-35.318	0.099
446.000	-36.568	0.099
446.100	-41.005	0.099
446.200	-41.664	0.099
446.300	-41.685	0.099
446.400	-30.861	0.099
446.500	-19.465	0.099
446.600	-51.859	0.099
446.700	-14.557	0.099
446.800	-38.471	0.099
446.900	-54.746	0.099
447.000	-43.641	0.099
447.100	-43.348	0.099
447.200	-31.428	0.099
447.300	-42.604	0.099
447.400	-39.208	0.099
447.500	-36.298	0.099
447.600	-47.563	0.099
447.700	-28.778	0.099
447.800	-29.413	0.099
447.900	-42.302	0.099
448.000	-50.406	0.099
448.100	-33.579	0.099
448.200	-37.356	0.099
448.300	-56.859	0.099
448.400	-27.141	0.099
448.500	-36.675	0.099
448.600	-36.160	0.099
448.700	-47.896	0.099
448.800	-38.624	0.099
448.900	-58.635	0.099
449.000	-39.982	0.099
449.100	-39.815	0.099
449.200	-20.310	0.099
449.300	-63.054	0.099
449.400	-31.334	0.099
449.500	-49.414	0.099
449.600	-50.799	0.099
449.700	-56.193	0.099
449.800	-37.941	0.099
449.900	-30.391	0.099
450.000	-27.316	0.099
450.100	-37.205	0.099
450.200	-31.974	0.099
450.300	-40.207	0.099
450.400	-46.521	0.099
450.500	-38.663	0.099
450.600	-43.260	0.099
450.700	-39.749	0.099
450.800	-43.365	0.099
450.900	-46.709	0.099
451.000	-22.349	0.099
451.100	-36.629	0.099
451.200	-52.691	0.099
451.300	-29.278	0.099
451.400	-23.207	0.099
451.500	-33.057	0.099
451.600	-39.994	0.099
451.700	-41.936	0.099
451.800	-31.563	0.099
451.900	-32.217	0.099
452.000	-46.145	0.099
452.100	-37.653	0.099
452.200	-41.442	0.099
452.300	-45.482	0.099
452.400	-56.157	0.099
452.500	-46.999	0.099
452.600	-34.036	0.099
452.700	-30.122	0.099
452.800	-38.942	0.099
452.900	-44.082	0.099
453.000	-31.119	0.099
453.100	-27.002	0.099
453.200	-43.070	0.099
453.300	-27.777	0.099
453.400	-43.688	0.099
453.500	-25.388	0.099
453.600	-36.505	0.099
453.700	-43.689	0.099
453.800	-26.158	0.099
453.900	-40.157	0.099
454.000	-37.165	0.099
454.100	-40.520	0.099
454.200	-39.379	0.099
454.300	-31.983	0.099
454.400	-43.526	0.099
454.500	-50.141	0.099
454.600	-27.483	0.099
454.700	-32.819	0.099
454.800	-16.882	0.099
454.900	-37.751	0.099
455.000	-52.936	0.099
455.100	-33.995	0.099
455.200	-39.702	0.099
455.300	-26.215	0.099
455.400	-29.003	0.099
455.500	-36.345	0.099
455.600	-48.858	0.099
455.700	-39.132	0.099
455.800	-36.013	0.099
455.900	-36.832	0.099
456.000	-34.327	0.099
456.100	-27.222	0.099
456.200	-37.777	0.099
456.300	-17.164	0.099
456.400	-41.024	0.099
456.500	-28.479	0.099
456.600	-51.290	0.099
456.700	-24.720	0.099
456.800	-40.963	0.099
456.900	-10.883	0.099
457.000	-28.617	0.099
457.100	-30.077	0.099
457.200	-42.500	0.099
457.300	-34.103	0.099
457.400	-47.350	0.099
457.500	-41.779	0.099
457.600	-46.650	0.099
457.700	-44.422	0.099
457.800	-38.630	0.099
457.900	-34.718	0.099
458.000	-57.142	0.099
458.100	-35.011	0.099
458.200	-53.710	0.099
458.300	-39.997	0.099
458.400	-32.725	0.099
458.500	-37.814	0.099
458.600	-31.907	0.099
458.700	-34.167	0.099
458.800	-31.724	0.099
458.900	-39.810	0.099
459.000	-18.942	0.099
459.100	-49.268	0.099
459.200	-33.760	0.099
459.300	-28.107	0.099
459.400	-52.426	0.099
459.500	-37.364	0.099
459.600	-62.741	0.099
459.700	-27.828	0.099
459.800	-14.492	0.099
459.900	-19.063	0.099
460.000	-35.775	0.099
460.100	-28.259	0.099
460.200	-40.654	0.099
460.300	-50.969	0.099
460.400	-55.216	0.099
460.500	-46.749	0.099
460.600	9.392	0.099
460.700	-26.990	0.099
460.800	-49.611	0.099
460.900	-37.227	0.099
461.000	-17.342	0.099
461.100	-42.258	0.099
461.200	-49.716	0.099
461.300	-36.303	0.099
461.400	-32.558	0.099
461.500	-55.916	0.099
461.600	-37.004	0.099
461.700	-44.456	0.099
461.800	-28.621	0.099
461.900	-58.139	0.099
462.000	-31.037	0.099
462.100	-21.040	0.099
462.200	-34.151	0.099
462.300	-43.728	0.099
462.400	-33.706	0.099
462.500	-28.943	0.099
462.600	-34.799	0.099
462.700	-34.888	0.099
462.800	-50.967	0.099
462.900	-38.061	0.099
463.000	-18.030	0.099
463.100	-20.002	0.099
463.200	-26.608	0.099
463.300	-33.810	0.099
463.400	-23.171	0.099
463.500	-46.646	0.099
463.600	-24.089	0.099
463.700	-32.527	0.099
463.800	-35.097	0.099
463.900	-26.350	0.099
464.000	-26.530	0.099
464.100	-48.542	0.099
464.200	-25.010	0.099
464.300	-51.339	0.099
464.400	-39.359	0.099
464.500	-25.666	0.099
464.600	-26.879	0.099
464.700	-35.389	0.099
464.800	-29.147	0.099
464.900	-35.801	0.099
465.000	-24.458	0.099
465.100	-35.077	0.099
465.200	-33.638	0.099
465.300	-24.578	0.099
465.400	-21.218	0.099
465.500	-6.689	0.099
465.600	-34.387	0.099
465.700	-51.132	0.099
465.800	-44.788	0.099
465.900	-43.220	0.099
466.000	-44.827	0.099
466.100	-51.567	0.099
466.200	-47.733	0.099
466.300	-36.342	0.099
466.400	-29.781	0.099
466.500	-47.994	0.099
466.600	-47.145	0.099
466.700	-37.095	0.099
466.800	-17.377	0.099
466.900	-31.030	0.099
467.000	-34.810	0.099
467.100	-18.720	0.099
467.200	-21.624	0.099
467.300	-44.058	0.099
467.400	-23.293	0.099
467.500	-48.913	0.099
467.600	-35.465	0.099
467.700	-18.639	0.099
467.800	-37.367	0.099
467.900	-29.043	0.099
468.000	-43.670	0.099
468.100	-48.576	0.099
468.200	-14.347	0.099
468.300	-53.075	0.099
468.400	-25.825	0.099
468.500	-37.779	0.099
468.600	-23.915	0.099
468.700	-33.418	0.099
468.800	-13.190	0.099
468.900	-17.767	0.099
469.000	-29.218	0.099
469.100	-42.597	0.099
469.200	-44.238	0.099
469.300	-25.511	0.099
469.400	-7.093	0.099
469.500	-41.979	0.099
469.600	-40.274	0.099
469.700	-36.655	0.099
469.800	-25.291	0.099
469.900	-27.777	0.099
470.000	-3.415	0.099
470.100	-45.211	0.099
470.200	-28.976	0.099
470.300	-23.907	0.099
470.400	-24.397	0.099
470.500	-36.991	0.099
470.600	-41.654	0.099
470.700	-42.378	0.099
470.800	-22.729	0.099
470.900	-21.737	0.099
471.000	-63.363	0.099
471.100	-32.949	0.099
471.200	-21.670	0.099
471.300	-37.851	0.099
471.400	-36.236	0.099
471.500	-36.682	0.099
471.600	-54.912	0.099
471.700	-26.925	0.099
471.800	-31.368	0.099
471.900	-26.227	0.099
472.000	-39.617	0.099
472.100	-32.602	0.099
472.200	-42.982	0.099
472.300	-27.611	0.099
472.400	-28.582	0.099
472.500	-26.602	0.099
472.600	-44.977	0.099
472.700	-23.584	0.099
472.800	-31.396	0.099
472.900	-29.780	0.099
473.000	-31.119	0.099
473.100	-40.500	0.099
473.200	-24.686	0.099
473.300	-26.747	0.099
473.400	-13.905	0.099
473.500	-30.615	0.099
473.600	-39.404	0.099
473.700	-26.308	0.099
473.800	-23.660	0.099
473.900	-25.860	0.099
474.000	-29.508	0.099
474.100	-33.373	0.099
474.200	-29.902	0.099
474.300	-33.819	0.099
474.400	-39.530	0.099
474.500	-29.095	0.099
474.600	-22.081	0.099
474.700	-15.409	0.099
474.800	-29.465	0.099
474.900	-40.960	0.099
475.000	-46.741	0.099
475.100	-33.987	0.099
475.200	-23.571	0.099
475.300	-34.795	0.099
475.400	-27.770	0.099
475.500	-27.856	0.099
475.600	-43.773	0.099
475.700	-22.220	0.099
475.800	-23.156	0.099
475.900	-40.530	0.099
476.000	-24.475	0.099
476.100	-32.092	0.099
476.200	-9.072	0.099
476.300	-32.508	0.099
476.400	-42.640	0.099
476.500	-37.191	0.099
476.600	-30.611	0.099
476.700	-28.135	0.099
476.800	-29.771	0.099
476.900	-26.428	0.099
477.000	-33.775	0.099
477.100	-21.361	0.099
477.200	-20.051	0.099
477.300	-35.490	0.099
477.400	-47.849	0.099
477.500	-34.991	0.099
477.600	-19.198	0.099
477.700	-41.268	0.099
477.800	-24.384	0.099
477.900	-38.428	0.099
478.000	-16.732	0.099
478.100	-36.355	0.099
478.200	-25.400	0.099
478.300	-24.537	0.099
478.400	-20.574	0.099
478.500	-31.136	0.099
478.600	-34.099	0.099
478.700	-30.365	0.099
478.800	-35.569	0.099
478.900	-27.875	0.099
479.000	-19.402	0.099
479.100	-32.928	0.099
479.200	-31.961	0.099
479.300	-13.689	0.099
479.400	-47.398	0.099
479.500	-39.953	0.099
479.600	-15.275	0.099
479.700	-28.718	0.099
479.800	-45.857	0.099
479.900	-48.975	0.099
480.000	-31.601	0.099
480.100	-38.072	0.099
480.200	-5.229	0.099
480.300	-22.347	0.099
480.400	-25.711	0.099
480.500	-24.283	0.099
480.600	-3.196	0.099
480.700	4.642	0.099
480.800	1.322	0.099
480.900	2.508	0.099
481.000	26.360	0.099
481.100	30.336	0.099
481.200	29.250	0.099
481.300	29.039	0.099
481.400	24.210	0.099
481.500	32.105	0.099
481.600	43.683	0.099
481.700	50.249	0.099
481.800	23.529	0.099
481.900	18.977	0.099
482.000	46.260	0.099
482.100	45.900	0.099
482.200	40.033	0.099
482.300	48.503	0.099
482.400	45.375	0.099
482.500	29.947	0.099
482.600	25.949	0.099
482.700	46.196	0.099
482.800	34.119	0.099
482.900	31.794	0.099
483.000	36.468	0.099
483.100	48.519	0.099
483.200	51.322	0.099
483.300	31.426	0.099
483.400	31.310	0.099
483.500	5.631	0.099
483.600	39.541	0.099
483.700	24.771	0.099
483.800	26.956	0.099
483.900	24.655	0.099
484.000	36.535	0.099
484.100	39.093	0.099
484.200	33.454	0.099
484.300	22.304	0.099
484.400	4.586	0.099
484.500	17.791	0.099
484.600	41.664	0.099
484.700	24.929	0.099
484.800	35.501	0.099
484.900	33.160	0.099
485.000	21.660	0.099
485.100	46.006	0.099
485.200	30.157	0.099
485.300	11.221	0.099
485.400	27.018	0.099
485.500	15.727	0.099
485.600	43.920	0.099
485.700	33.214	0.099
485.800	36.408	0.099
485.900	27.041	0.099
486.000	35.705	0.099
486.100	42.333	0.099
486.200	31.240	0.099
486.300	30.455	0.099
486.400	41.132	0.099
486.500	43.811	0.099
486.600	29.470	0.099
486.700	20.484	0.099
486.800	56.369	0.099
486.900	52.823	0.099
487.000	36.310	0.099
487.100	45.421	0.099
487.200	40.992	0.099
487.300	51.259	0.099
487.400	44.906	0.099
487.500	53.097	0.099
487.600	34.143	0.099
487.700	34.454	0.099
487.800	44.795	0.099
487.900	67.228	0.099
488.000	45.632	0.099
488.100	55.373	0.099
488.200	52.048	0.099
488.300	45.258	0.099
488.400	43.001	0.099
488.500	47.748	0.099
488.600	55.661	0.099
488.700	56.203	0.099
488.800	66.825	0.099
488.900	42.708	0.099
489.000	70.846	0.099
489.100	76.493	0.099
489.200	71.823	0.099
489.300	65.771	0.099
489.400	76.557	0.099
489.500	87.491	0.099
489.600	72.075	0.099
489.700	72.535	0.099
489.800	59.625	0.099
489.900	91.316	0.099
490.000	94.736	0.099
490.100	76.537	0.099
490.200	82.436	0.099
490.300	81.306	0.099
490.400	96.425	0.099
490.500	94.386	0.099
490.600	92.562	0.099
490.700	82.897	0.099
490.800	89.487	0.099
490.900	100.505	0.099
491.000	88.459	0.099
491.100	76.682	0.099
491.200	88.575	0.099
491.300	86.782	0.099
491.400	106.359	0.099
491.500	107.620	0.099
491.600	99.713	0.099
491.700	100.364	0.099
491.800	84.433	0.099
491.900	110.815	0.099
492.000	117.130	0.099
492.100	91.625	0.099
492.200	105.156	0.099
492.300	96.501	0.099
492.400	80.927	0.099
492.500	96.560	0.099
492.600	119.861	0.099
492.700	117.472	0.099
492.800	117.756	0.099
492.900	107.085	0.099
493.000	104.528	0.099
493.100	101.949	0.099
493.200	117.300	0.099
493.300	107.130	0.099
493.400	115.676	0.099
493.500	99.869	0.099
493.600	114.696	0.099
493.700	90.469	0.099
493.800	110.684	0.099
493.900	110.549	0.099
494.000	103.772	0.099
494.100	115.076	0.099
494.200	120.959	0.099
494.300	126.346	0.099
494.400	126.042	0.099
494.500	115.776	0.099
494.600	112.584	0.099
494.700	128.082	0.099
494.800	106.958	0.099
494.900	111.318	0.099
495.000	112.167	0.099
495.100	135.200	0.099
495.200	123.019	0.099
495.300	92.090	0.099
495.400	107.742	0.099
495.500	127.152	0.099
495.600	123.003	0.099
495.700	117.818	0.099
495.800	116.362	0.099
495.900	91.218	0.099
496.000	101.988	0.099
496.100	119.066	0.099
496.200	111.543	0.099
496.300	126.783	0.099
496.400	112.726	0.099
496.500	105.288	0.099
496.600	109.231	0.099
496.700	121.939	0.099
496.800	123.670	0.099
496.900	108.986	0.099
497.000	122.486	0.099
497.100	119.650	0.099
497.200	125.450	0.099
497.300	105.996	0.099
497.400	101.137	0.099
497.500	79.411	0.099
497.600	108.462	0.099
497.700	121.362	0.099
497.800	110.378	0.099
497.900	102.094	0.099
498.000	120.307	0.099
498.100	120.238	0.099
498.200	118.428	0.099
498.300	123.813	0.099
498.400	116.033	0.099
498.500	123.277	0.099
498.600	105.775	0.099
498.700	99.545	0.099
498.800	94.372	0.099
498.900	97.258	0.099
499.000	108.761	0.099
499.100	114.363	0.099
499.200	141.454	0.099
499.300	91.830	0.099
499.400	90.578	0.099
499.500	100.640	0.099
499.600	97.274	0.099
499.700	113.330	0.099
499.800	118.855	0.099
499.900	118.088	0.099
500.000	100.884	0.099
500.100	111.463	0.099
500.200	90.941	0.099
500.300	105.942	0.099
500.400	120.899	0.099
500.500	121.642	0.099
500.600	89.862	0.099
500.700	105.744	0.099
500.800	111.248	0.099
500.900	102.045	0.099
501.000	111.157	0.099
501.100	89.861	0.099
501.200	121.774	0.099
501.300	105.066	0.099
501.400	124.065	0.099
501.500	139.889	0.099
501.600	120.821	0.099
501.700	112.700	0.099
501.800	94.083	0.099
501.900	103.228	0.099
502.000	103.176	0.099
502.100	108.453	0.099
502.200	98.591	0.099
502.300	108.959	0.099
502.400	122.417	0.099
502.500	116.618	0.099
502.600	101.072	0.099
502.700	113.337	0.099
502.800	110.135	0.099
502.900	93.295	0.099
503.000	111.959	0.099
503.100	101.900	0.099
503.200	103.145	0.099
503.300	106.604	0.099
503.400	99.152	0.099
503.500	91.452	0.099
503.600	103.648	0.099
503.700	110.920	0.099
503.800	106.994	0.099
503.900	114.410	0.099
504.000	102.871	0.099
504.100	110.302	0.099
504.200	107.920	0.099
504.300	93.853	0.099
504.400	96.235	0.099
504.500	119.748	0.099
504.600	104.404	0.099
504.700	102.262	0.099
504.800	98.648	0.099
504.900	73.186	0.099
505.000	99.400	0.099
505.100	112.946	0.099
505.200	126.158	0.099
505.300	98.807	0.099
505.400	116.434	0.099
505.500	122.536	0.099
505.600	90.319	0.099
505.700	109.312	0.099
505.800	110.785	0.099
505.900	115.092	0.099
506.000	100.652	0.099
506.100	97.764	0.099
506.200	98.598	0.099
506.300	92.788	0.099
506.400	93.981	0.099
506.500	94.956	0.099
506.600	98.422	0.099
506.700	102.458	0.099
506.800	113.889	0.099
506.900	105.591	0.099
507.000	99.931	0.099
507.100	91.015	0.099
507.200	106.606	0.099
507.300	110.903	0.099
507.400	112.618	0.099
507.500	91.365	0.099
507.600	102.671	0.099
507.700	98.334	0.099
507.800	88.793	0.099
507.900	118.095	0.099
508.000	110.565	0.099
508.100	106.665	0.099
508.200	93.100	0.099
508.300	127.990	0.099
508.400	126.024	0.099
508.500	106.230	0.099
508.600	110.808	0.099
508.700	98.999	0.099
508.800	96.200	0.099
508.900	86.434	0.099
509.000	107.820	0.099
509.100	105.404	0.099
509.200	93.474	0.099
509.300	117.433	0.099
509.400	93.341	0.099
509.500	107.188	0.099
509.600	98.119	0.099
509.700	94.718	0.099
509.800	93.921	0.099
509.900	97.352	0.099
510.000	104.807	0.099
510.100	93.161	0.099
510.200	116.210	0.099
510.300	102.924	0.099
510.400	83.185	0.099
510.500	115.399	0.099
510.600	111.356	0.099
510.700	113.947	0.099
510.800	98.059	0.099
510.900	109.504	0.099
511.000	99.140	0.099
511.100	103.280	0.099
511.200	113.114	0.099
511.300	102.674	0.099
511.400	106.520	0.099
511.500	103.702	0.099
511.600	110.484	0.099
511.700	110.053	0.099
511.800	98.284	0.099
511.900	109.441	0.099
512.000	103.954	0.099
512.100	101.368	0.099
512.200	107.858	0.099
512.300	105.726	0.099
512.400	98.038	0.099
512.500	99.389	0.099
512.600	100.426	0.099
512.700	103.553	0.099
512.800	100.122	0.099
512.900	106.437	0.099
513.000	93.546	0.099
513.100	118.626	0.099
513.200	93.231	0.099
513.300	101.532	0.099
513.400	107.499	0.099
513.500	104.325	0.099
513.600	99.136	0.099
513.700	91.135	0.099
513.800	95.977	0.099
513.900	100.624	0.099
514.000	112.535	0.099
514.100	99.169	0.099
514.200	108.566	0.099
514.300	98.024	0.099
514.400	117.657	0.099
514.500	113.892	0.099
514.600	86.896	0.099
514.700	103.471	0.099
514.800	93.843	0.099
514.900	111.094	0.099
515.000	97.937	0.099
515.100	96.277	0.099
515.200	111.496	0.099
515.300	111.490	0.099
515.400	108.515	0.099
515.500	91.244	0.099
515.600	104.038	0.099
515.700	98.121	0.099
515.800	107.871	0.099
515.900	92.404	0.099
516.000	99.778	0.099
516.100	107.480	0.099
516.200	92.560	0.099
516.300	88.577	0.099
516.400	103.740	0.099
516.500	119.758	0.099
516.600	86.016	0.099
516.700	105.749	0.099
516.800	74.327	0.099
516.900	112.309	0.099
517.000	104.588	0.099
517.100	101.465	0.099
517.200	101.756	0.099
517.300	103.625	0.099
517.400	87.826	0.099
517.500	95.310	0.099
517.600	92.931	0.099
517.700	102.585	0.099
517.800	102.870	0.099
517.900	86.167	0.099
518.000	99.786	0.099
518.100	121.428	0.099
518.200	101.437	0.099
518.300	91.155	0.099
518.400	103.622	0.099
518.500	90.793	0.099
518.600	95.656	0.099
518.700	104.180	0.099
518.800	100.393	0.099
518.900	113.641	0.099
519.000	88.947	0.099
519.100	104.060	0.099
519.200	98.392	0.099
519.300	100.170	0.099
519.400	82.508	0.099
519.500	99.004	0.099
519.600	96.162	0.099
519.700	88.990	0.099
519.800	110.053	0.099
519.900	95.511	0.099
520.000	98.939	0.099
520.100	98.861	0.099
520.200	96.486	0.099
520.300	81.406	0.099
520.400	95.039	0.099
520.500	94.612	0.099
520.600	94.483	0.099
520.700	108.340	0.099
520.800	99.272	0.099
520.900	104.810	0.099
521.000	96.063	0.099
521.100	91.793	0.099
521.200	92.267	0.099
521.300	98.025	0.099
521.400	103.244	0.099
521.500	108.355	0.099
521.600	103.235	0.099
521.700	80.838	0.099
521.800	100.415	0.099
521.900	111.434	0.099
522.000	103.342	0.099
522.100	99.466	0.099
522.200	89.259	0.099
522.300	107.739	0.099
522.400	89.771	0.099
522.500	84.065	0.099
522.600	103.890	0.099
522.700	105.283	0.099
522.800	104.205	0.099
522.900	105.393	0.099
523.000	87.394	0.099
523.100	97.957	0.099
523.200	115.756	0.099
523.300	74.984	0.099
523.400	109.782	0.099
523.500	91.294	0.099
523.600	98.667	0.099
523.700	79.699	0.099
523.800	98.156	0.099
523.900	102.464	0.099
524.000	108.735	0.099
524.100	86.645	0.099
524.200	81.255	0.099
524.300	91.962	0.099
524.400	99.548	0.099
524.500	107.002	0.099
524.600	84.965	0.099
524.700	85.932	0.099
524.800	93.677	0.099
524.900	108.133	0.099
525.000	117.658	0.099
525.100	102.549	0.099
525.200	104.322	0.099
525.300	100.750	0.099
525.400	92.813	0.099
525.500	100.451	0.099
525.600	107.164	0.099
525.700	97.017	0.099
525.800	84.197	0.099
525.900	104.040	0.099
526.000	104.421	0.099
526.100	87.112	0.099
526.200	97.249	0.099
526.300	105.040	0.099
526.400	97.920	0.099
526.500	87.884	0.099
526.600	83.416	0.099
526.700	103.335	0.099
526.800	96.097	0.099
526.900	81.736	0.099
527.000	110.233	0.099
527.100	103.458	0.099
527.200	106.407	0.099
527.300	107.311	0.099
527.400	86.387	0.099
527.500	112.213	0.099
527.600	105.314	0.099
527.700	87.999	0.099
527.800	100.220	0.099
527.900	88.262	0.099
528.000	79.010	0.099
528.100	94.699	0.099
528.200	99.004	0.099
528.300	101.762	0.099
528.400	92.811	0.099
528.500	99.447	0.099
528.600	109.056	0.099
528.700	107.178	0.099
528.800	96.660	0.099
528.900	103.103	0.099
529.000	88.460	0.099
529.100	72.514	0.099
529.200	93.202	0.099
529.300	91.344	0.099
529.400	105.601	0.099
529.500	96.052	0.099
529.600	100.076	0.099
529.700	94.915	0.099
529.800	112.833	0.099
529.900	92.493	0.099
530.000	92.697	0.099
530.100	98.650	0.099
530.200	88.153	0.099
530.300	88.190	0.099
530.400	79.952	0.099
530.500	89.563	0.099
530.600	117.570	0.099
530.700	99.108	0.099
530.800	90.500	0.099
530.900	101.379	0.099
531.000	120.938	0.099
531.100	101.994	0.099
531.200	97.843	0.099
531.300	110.056	0.099
531.400	77.826	0.099
531.500	72.267	0.099
531.600	92.639	0.099
531.700	92.997	0.099
531.800	89.354	0.099
531.900	100.390	0.099
532.000	103.643	0.099
532.100	91.615	0.099
532.200	83.890	0.099
532.300	97.786	0.099
532.400	93.742	0.099
532.500	83.790	0.099
532.600	107.307	0.099
532.700	96.057	0.099
532.800	99.292	0.099
532.900	93.617	0.099
533.000	93.870	0.099
533.100	98.736	0.099
533.200	90.233	0.099
533.300	82.285	0.099
533.400	97.416	0.099
533.500	91.811	0.099
533.600	102.791	0.099
533.700	90.874	0.099
533.800	90.825	0.099
533.900	97.027	0.099
534.000	100.601	0.099
534.100	105.115	0.099
534.200	95.748	0.099
534.300	90.118	0.099
534.400	110.361	0.099
534.500	88.882	0.099
534.600	101.640	0.099
534.700	97.235	0.099
534.800	89.541	0.099
534.900	95.440	0.099
535.000	114.407	0.099
535.100	89.621	0.099
535.200	109.378	0.099
535.300	110.899	0.099
535.400	91.930	0.099
535.500	95.042	0.099
535.600	68.778	0.099
535.700	84.374	0.099
535.800	93.809	0.099
535.900	98.604	0.099
536.000	77.465	0.099
536.100	103.565	0.099
536.200	90.763	0.099
536.300	111.272	0.099
536.400	98.045	0.099
536.500	91.144	0.099
536.600	96.609	0.099
536.700	86.566	0.099
536.800	82.889	0.099
536.900	94.231	0.099
537.000	78.563	0.099
537.100	89.469	0.099
537.200	80.260	0.099
537.300	103.781	0.099
537.400	94.695	0.099
537.500	99.730	0.099
537.600	83.622	0.099
537.700	107.625	0.099
537.800	90.623	0.099
537.900	103.295	0.099
538.000	98.261	0.099
538.100	94.468	0.099
538.200	100.083	0.099
538.300	95.140	0.099
538.400	95.864	0.099
538.500	78.648	0.099
538.600	90.888	0.099
538.700	99.765	0.099
538.800	107.451	0.099
538.900	95.637	0.099
539.000	84.419	0.099
539.100	97.155	0.099
539.200	92.428	0.099
539.300	81.091	0.099
539.400	104.906	0.099
539.500	88.607	0.099
539.600	111.669	0.099
539.700	75.169	0.099
539.800	103.194	0.099
539.900	108.784	0.099
540.000	100.620	0.099
540.100	88.755	0.099
540.200	89.662	0.099
540.300	84.218	0.099
540.400	67.839	0.099
540.500	71.595	0.099
540.600	47.784	0.099
540.700	58.501	0.099
540.800	49.872	0.099
540.900	51.550	0.099
541.000	20.929	0.099
541.100	16.837	0.099
541.200	-4.915	0.099
541.300	6.957	0.099
541.400	7.742	0.099
541.500	1.975	0.099
541.600	-7.635	0.099
541.700	-22.816	0.099
541.800	-4.294	0.099
541.900	4.037	0.099
542.000	-11.769	0.099
542.100	-15.520	0.099
542.200	-10.730	0.099
542.300	-46.999	0.099
542.400	-6.229	0.099
542.500	-12.463	0.099
542.600	-20.147	0.099
542.700	-19.927	0.099
542.800	-26.014	0.099
542.900	-33.064	0.099
543.000	-18.599	0.099
543.100	-15.695	0.099
543.200	-9.988	0.099
543.300	-22.494	0.099
543.400	-27.720	0.099
543.500	-47.835	0.099
543.600	-19.090	0.099
543.700	-46.103	0.099
543.800	-20.198	0.099
543.900	-31.208	0.099
544.000	-27.586	0.099
544.100	-23.941	0.099
544.200	-31.794	0.099
544.300	-27.881	0.099
544.400	-26.782	0.099
544.500	-48.320	0.099
544.600	-28.827	0.099
544.700	-19.502	0.099
544.800	-26.430	0.099
544.900	-20.851	0.099
545.000	-36.783	0.099
545.100	-17.098	0.099
545.200	-11.851	0.099
545.300	-19.896	0.099
545.400	-26.804	0.099
545.500	-31.051	0.099
545.600	-27.379	0.099
545.700	-24.205	0.099
545.800	-16.484	0.099
545.900	-20.007	0.099
546.000	-46.552	0.099
546.100	-48.289	0.099
546.200	-33.221	0.099
546.300	-26.256	0.099
546.400	-39.079	0.099
546.500	-27.928	0.099
546.600	-34.583	0.099
546.700	-6.452	0.099
546.800	-21.368	0.099
546.900	-23.793	0.099
547.000	-20.383	0.099
547.100	-27.743	0.099
547.200	-28.734	0.099
547.300	-40.331	0.099
547.400	-33.846	0.099
547.500	-33.330	0.099
547.600	-29.402	0.099
547.700	-34.790	0.099
547.800	-13.262	0.099
547.900	-32.254	0.099
548.000	-34.578	0.099
548.100	-26.568	0.099
548.200	-26.199	0.099
548.300	-34.606	0.099
548.400	-19.962	0.099
548.500	-35.006	0.099
548.600	-16.419	0.099
548.700	-26.420	0.099
548.800	-19.239	0.099
548.900	-9.581	0.099
549.000	-47.394	0.099
549.100	-37.939	0.099
549.200	-31.142	0.099
549.300	-30.618	0.099
549.400	-36.126	0.099
549.500	-22.618	0.099
549.600	-29.139	0.099
549.700	-29.051	0.099
549.800	-27.668	0.099
549.900	-50.450	0.099
550.000	-45.469	0.099
550.100	-26.394	0.099
550.200	-44.133	0.099
550.300	-53.586	0.099
550.400	-44.986	0.099
550.500	-19.113	0.099
550.600	-36.782	0.099
550.700	-49.304	0.099
550.800	-36.497	0.099
550.900	-18.651	0.099
551.000	-35.878	0.099
551.100	-7.868	0.099
551.200	-40.483	0.099
551.300	-28.919	0.099
551.400	-50.506	0.099
551.500	-32.684	0.099
551.600	-38.913	0.099
551.700	-32.800	0.099
551.800	-34.077	0.099
551.900	-60.163	0.099
552.000	-25.248	0.099
552.100	-33.987	0.099
552.200	-28.808	0.099
552.300	-28.060	0.099
552.400	-52.057	0.099
552.500	-53.273	0.099
552.600	-48.212	0.099
552.700	-42.488	0.099
552.800	-31.251	0.099
552.900	-26.122	0.099
553.000	-29.959	0.099
553.100	-38.260	0.099
553.200	-45.580	0.099
553.300	-41.340	0.099
553.400	-24.291	0.099
553.500	-39.204	0.099
553.600	-29.153	0.099
553.700	-32.399	0.099
553.800	-44.318	0.099
553.900	-38.900	0.099
554.000	-29.951	0.099
554.100	-48.793	0.099
554.200	-42.332	0.099
554.300	-51.457	0.099
554.400	-41.737	0.099
554.500	-27.070	0.099
554.600	-37.219	0.099
554.700	-49.417	0.099
554.800	-37.508	0.099
554.900	-21.409	0.099
555.000	-18.601	0.099
555.100	-46.457	0.099
555.200	-32.971	0.099
555.300	-41.202	0.099
555.400	-64.563	0.099
555.500	-70.986	0.099
555.600	-28.751	0.099
555.700	-46.277	0.099
555.800	-22.141	0.099
555.900	-51.626	0.099
556.000	-34.523	0.099
556.100	-51.430	0.099
556.200	-38.399	0.099
556.300	-26.287	0.099
556.400	-41.509	0.099
556.500	-39.803	0.099
556.600	-38.999	0.099
556.700	-38.007	0.099
556.800	-35.809	0.099
556.900	-51.983	0.099
557.000	-54.184	0.099
557.100	-20.361	0.099
557.200	-56.436	0.099
557.300	-48.881	0.099
557.400	-26.633	0.099
557.500	-45.929	0.099
557.600	-35.090	0.099
557.700	-46.606	0.099
557.800	-45.752	0.099
557.900	-49.780	0.099
558.000	-42.747	0.099
558.100	-41.850	0.099
558.200	-44.222	0.099
558.300	-50.857	0.099
558.400	-53.858	0.099
558.500	-31.216	0.099
558.600	-36.592	0.099
558.700	-18.158	0.099
558.800	-56.088	0.099
558.900	-53.603	0.099
559.000	-36.136	0.099
559.100	-29.952	0.099
559.200	-68.489	0.099
559.300	-39.656	0.099
559.400	-71.926	0.099
559.500	-41.747	0.099
559.600	-62.250	0.099
559.700	-43.122	0.099
559.800	-52.985	0.099
559.900	-47.559	0.099
560.000	-57.245	0.099
560.100	-46.355	0.099
560.200	-39.452	0.099
560.300	-49.574	0.099
560.400	-60.566	0.099
560.500	-48.076	0.099
560.600	-50.040	0.099
560.700	-47.507	0.099
560.800	-43.223	0.099
560.900	-31.761	0.099
561.000	-42.411	0.099
561.100	-48.554	0.099
561.200	-59.380	0.099
561.300	-50.846	0.099
561.400	-71.676	0.099
561.500	-58.506	0.099
561.600	-49.657	0.099
561.700	-38.123	0.099
561.800	-43.168	0.099
561.900	-39.144	0.099
562.000	-41.891	0.099
562.100	-49.787	0.099
562.200	-24.523	0.099
562.300	-69.427	0.099
562.400	-62.783	0.099
562.500	-68.077	0.099
562.600	-41.821	0.099
562.700	-52.617	0.099
562.800	-58.486	0.099
562.900	-43.647	0.099
563.000	-53.663	0.099
563.100	-60.511	0.099
563.200	-61.744	0.099
563.300	-51.075	0.099
563.400	-61.606	0.099
563.500	-60.385	0.099
563.600	-59.043	0.099
563.700	-52.454	0.099
563.800	-41.381	0.099
563.900	-26.603	0.099
564.000	-55.055	0.099
564.100	-62.337	0.099
564.200	-44.613	0.099
564.300	-47.212	0.099
564.400	-71.963	0.099
564.500	-57.053	0.099
564.600	-20.380	0.099
564.700	-66.180	0.099
564.800	-53.165	0.099
564.900	-80.266	0.099
565.000	-41.043	0.099
565.100	-47.534	0.099
565.200	-57.358	0.099
565.300	-45.899	0.099
565.400	-44.443	0.099
565.500	-54.633	0.099
565.600	-59.970	0.099
565.700	-48.943	0.099
565.800	-48.423	0.099
565.900	-50.055	0.099
566.000	-66.000	0.099
566.100	-63.422	0.099
566.200	-44.755	0.099
566.300	-68.996	0.099
566.400	-70.381	0.099
566.500	-54.559	0.099
566.600	-54.212	0.099
566.700	-54.328	0.099
566.800	-48.403	0.099
566.900	-58.042	0.099
567.000	-60.176	0.099
567.100	-75.499	0.099
567.200	-44.780	0.099
567.300	-57.299	0.099
567.400	-44.378	0.099
567.500	-63.565	0.099
567.600	-40.409	0.099
567.700	-53.156	0.099
567.800	-69.062	0.099
567.900	-59.820	0.099
568.000	-37.393	0.099
568.100	-39.979	0.099
568.200	-52.623	0.099
568.300	-54.908	0.099
568.400	-67.172	0.099
568.500	-55.530	0.099
568.600	-59.310	0.099
568.700	-45.800	0.099
568.800	-58.464	0.099
568.900	-74.376	0.099
569.000	-46.058	0.099
569.100	-36.348	0.099
569.200	-46.900	0.099
569.300	-61.054	0.099
569.400	-63.807	0.099
569.500	-47.598	0.099
569.600	-36.313	0.099
569.700	-49.153	0.099
569.800	-68.696	0.099
569.900	-56.926	0.099
570.000	-75.499	0.099
570.100	-67.982	0.099
570.200	-38.770	0.099
570.300	-54.702	0.099
570.400	-65.920	0.099
570.500	-59.236	0.099
570.600	-48.878	0.099
570.700	-72.175	0.099
570.800	-53.400	0.099
570.900	-63.875	0.099
571.000	-39.398	0.099
571.100	-65.395	0.099
571.200	-44.389	0.099
571.300	-52.277	0.099
571.400	-61.809	0.099
571.500	-51.172	0.099
571.600	-69.984	0.099
571.700	-34.310	0.099
571.800	-45.845	0.099
571.900	-60.903	0.099
572.000	-50.252	0.099
572.100	-52.994	0.099
572.200	-51.033	0.099
572.300	-53.819	0.099
572.400	-57.064	0.099
572.500	-54.615	0.099
572.600	-46.760	0.099
572.700	-48.719	0.099
572.800	-60.335	0.099
572.900	-59.127	0.099
573.000	-67.136	0.099
573.100	-81.469	0.099
573.200	-38.781	0.099
573.300	-43.623	0.099
573.400	-55.853	0.099
573.500	-63.699	0.099
573.600	-57.647	0.099
573.700	-56.042	0.099
573.800	-58.430	0.099
573.900	-55.237	0.099
574.000	-66.533	0.099
574.100	-54.938	0.099
574.200	-75.272	0.099
574.300	-49.442	0.099
574.400	-53.962	0.099
574.500	-45.058	0.099
574.600	-62.775	0.099
574.700	-46.134	0.099
574.800	-63.233	0.099
574.900	-64.951	0.099
575.000	-57.487	0.099
575.100	-40.896	0.099
575.200	-29.885	0.099
575.300	-49.697	0.099
575.400	-56.289	0.099
575.500	-54.890	0.099
575.600	-61.444	0.099
575.700	-42.891	0.099
575.800	-62.854	0.099
575.900	-33.239	0.099
576.000	-58.739	0.099
576.100	-59.466	0.099
576.200	-71.082	0.099
576.300	-44.801	0.099
576.400	-51.675	0.099
576.500	-53.345	0.099
576.600	-39.080	0.099
576.700	-47.764	0.099
576.800	-71.395	0.099
576.900	-58.393	0.099
577.000	-65.315	0.099
577.100	-49.370	0.099
577.200	-64.566	0.099
577.300	-56.311	0.099
577.400	-27.103	0.099
577.500	-67.213	0.099
577.600	-54.272	0.099
577.700	-42.047	0.099
577.800	-51.980	0.099
577.900	-52.214	0.099
578.000	-55.398	0.099
578.100	-32.725	0.099
578.200	-40.855	0.099
578.300	-64.181	0.099
578.400	-51.950	0.099
578.500	-50.754	0.099
578.600	-70.630	0.099
578.700	-65.477	0.099
578.800	-54.823	0.099
578.900	-51.082	0.099
579.000	-31.436	0.099
579.100	-53.583	0.099
579.200	-61.385	0.099
579.300	-57.474	0.099
579.400	-47.529	0.099
579.500	-41.698	0.099
579.600	-72.558	0.099
579.700	-28.873	0.099
579.800	-76.261	0.099
579.900	-32.105	0.099
580.000	-49.248	0.099
580.100	-50.631	0.099
580.200	-45.956	0.099
580.300	-57.121	0.099
580.400	-53.843	0.099
580.500	-61.319	0.099
580.600	-40.098	0.099
580.700	-36.457	0.099
580.800	-33.917	0.099
580.900	-46.785	0.099
581.000	-69.553	0.099
581.100	-62.173	0.099
581.200	-55.198	0.099
581.300	-51.164	0.099
581.400	-61.367	0.099
581.500	-49.247	0.099
581.600	-38.077	0.099
581.700	-74.834	0.099
581.800	-48.171	0.099
581.900	-52.418	0.099
582.000	-70.201	0.099
582.100	-66.849	0.099
582.200	-36.741	0.099
582.300	-47.739	0.099
582.400	-57.228	0.099
582.500	-67.659	0.099
582.600	-43.341	0.099
582.700	-39.066	0.099
582.800	-48.823	0.099
582.900	-59.720	0.099
583.000	-50.212	0.099
583.100	-48.801	0.099
583.200	-42.287	0.099
583.300	-42.943	0.099
583.400	-49.739	0.099
583.500	-77.858	0.099
583.600	-54.675	0.099
583.700	-44.051	0.099
583.800	-44.213	0.099
583.900	-33.618	0.099
584.000	-50.555	0.099
584.100	-74.167	0.099
584.200	-76.360	0.099
584.300	-42.475	0.099
584.400	-42.115	0.099
584.500	-50.225	0.099
584.600	-29.247	0.099
584.700	-53.208	0.099
584.800	-53.290	0.099
584.900	-64.020	0.099
585.000	-59.020	0.099
585.100	-58.065	0.099
585.200	-47.092	0.099
585.300	-44.670	0.099
585.400	-48.458	0.099
585.500	-52.573	0.099
585.600	-40.336	0.099
585.700	-45.246	0.099
585.800	-48.379	0.099
585.900	-38.970	0.099
586.000	-40.540	0.099
586.100	-58.226	0.099
586.200	-52.378	0.099
586.300	-54.756	0.099
586.400	-67.598	0.099
586.500	-48.725	0.099
586.600	-59.219	0.099
586.700	-20.251	0.099
586.800	-63.788	0.099
586.900	-49.699	0.099
587.000	-30.941	0.099
587.100	-63.903	0.099
587.200	-45.769	0.099
587.300	-33.430	0.099
587.400	-51.033	0.099
587.500	-41.072	0.099
587.600	-52.040	0.099
587.700	-37.838	0.099
587.800	-42.259	0.099
587.900	-49.467	0.099
588.000	-47.805	0.099
588.100	-46.782	0.099
588.200	-47.530	0.099
588.300	-34.836	0.099
588.400	-54.750	0.099
588.500	-33.815	0.099
588.600	-50.541	0.099
588.700	-45.325	0.099
588.800	-60.909	0.099
588.900	-57.216	0.099
589.000	-60.533	0.099
589.100	-48.903	0.099
589.200	-52.670	0.099
589.300	-48.569	0.099
589.400	-60.319	0.099
589.500	-53.457	0.099
589.600	-45.000	0.099
589.700	-60.623	0.099
589.800	-46.735	0.099
589.900	-39.732	0.099
590.000	-50.387	0.099
590.100	-54.607	0.099
590.200	-70.622	0.099
590.300	-49.950	0.099
590.400	-37.116	0.099
590.500	-34.964	0.099
590.600	-43.296	0.099
590.700	-44.094	0.099
590.800	-65.607	0.099
590.900	-43.128	0.099
591.000	-35.452	0.099
591.100	-55.981	0.099
591.200	-52.993	0.099
591.300	-33.177	0.099
591.400	-46.715	0.099
591.500	-50.349	0.099
591.600	-39.481	0.099
591.700	-52.412	0.099
591.800	-52.289	0.099
591.900	-55.871	0.099
592.000	-50.086	0.099
592.100	-44.256	0.099
592.200	-37.371	0.099
592.300	-50.101	0.099
592.400	-45.170	0.099
592.500	-40.512	0.099
592.600	-59.187	0.099
592.700	-20.355	0.099
592.800	-36.377	0.099
592.900	-22.991	0.099
593.000	-44.552	0.099
593.100	-44.738	0.099
593.200	-36.443	0.099
593.300	-55.375	0.099
593.400	-64.473	0.099
593.500	-30.291	0.099
593.600	-55.282	0.099
593.700	-30.489	0.099
593.800	-61.897	0.099
593.900	-43.180	0.099
594.000	-41.125	0.099
594.100	-33.078	0.099
594.200	-51.892	0.099
594.300	-45.300	0.099
594.400	-62.200	0.099
594.500	-48.213	0.099
594.600	-37.824	0.099
594.700	-43.124	0.099
594.800	-31.910	0.099
594.900	-32.107	0.099
595.000	-61.601	0.099
595.100	-68.293	0.099
595.200	-47.313	0.099
595.300	-19.009	0.099
595.400	-41.518	0.099
595.500	-48.835	0.099
595.600	-49.103	0.099
595.700	-42.842	0.099
595.800	-43.295	0.099
595.900	-34.661	0.099
596.000	-43.650	0.099
596.100	-34.546	0.099
596.200	-37.509	0.099
596.300	-42.375	0.099
596.400	-64.026	0.099
596.500	-50.135	0.099
596.600	-45.099	0.099
596.700	-48.175	0.099
596.800	-59.971	0.099
596.900	-49.889	0.099
597.000	-32.576	0.099
597.100	-44.905	0.099
597.200	-54.859	0.099
597.300	-37.979	0.099
597.400	-52.676	0.099
597.500	-36.877	0.099
597.600	-42.670	0.099
597.700	-68.202	0.099
597.800	-42.554	0.099
597.900	-40.195	0.099
598.000	-38.258	0.099
598.100	-39.244	0.099
598.200	-34.397	0.099
598.300	-38.957	0.099
598.400	-30.389	0.099
598.500	-29.127	0.099
598.600	-24.697	0.099
598.700	-55.646	0.099
598.800	-52.911	0.099
598.900	-49.178	0.099
599.000	-46.240	0.099
599.100	-36.076	0.099
599.200	-40.621	0.099
599.300	-51.912	0.099
599.400	-43.192	0.099
599.500	-42.789	0.099
599.600	-23.133	0.099
599.700	-38.270	0.099
599.800	-68.212	0.099
599.900	-32.361	0.099
600.000	-51.298	0.099
600.100	-45.878	0.099
600.200	-29.280	0.099
600.300	-34.864	0.099
600.400	-48.539	0.099
600.500	-38.553	0.099
600.600	-57.954	0.099
600.700	-38.359	0.099
600.800	-20.300	0.099
600.900	-34.701	0.099
601.000	-37.378	0.099
601.100	-45.252	0.099
601.200	-22.915	0.099
601.300	-45.576	0.099
601.400	-52.351	0.099
601.500	-58.292	0.099
601.600	-47.595	0.099
601.700	-41.159	0.099
601.800	-34.461	0.099
601.900	-37.466	0.099
602.000	-57.785	0.099
602.100	-40.043	0.099
602.200	-42.337	0.099
602.300	-48.832	0.099
602.400	-35.859	0.099
602.500	-50.022	0.099
602.600	-36.376	0.099
602.700	-46.606	0.099
602.800	-37.223	0.099
602.900	-46.822	0.099
603.000	-43.568	0.099
603.100	-33.255	0.099
603.200	-59.244	0.099
603.300	-28.838	0.099
603.400	-28.270	0.099
603.500	-43.786	0.099
603.600	-46.125	0.099
603.700	-31.745	0.099
603.800	-31.444	0.099
603.900	-34.896	0.099
604.000	-44.711	0.099
604.100	-51.681	0.099
604.200	-42.151	0.099
604.300	-51.876	0.099
604.400	-41.674	0.099
604.500	-62.868	0.099
604.600	-27.712	0.099
604.700	-15.673	0.099
604.800	-38.305	0.099
604.900	-43.279	0.099
605.000	-26.567	0.099
605.100	-65.082	0.099
605.200	-27.912	0.099
605.300	-34.306	0.099
605.400	-30.309	0.099
605.500	-52.878	0.099
605.600	-33.388	0.099
605.700	-36.424	0.099
605.800	-43.818	0.099
605.900	-51.149	0.099
606.000	-24.132	0.099
606.100	-14.651	0.099
606.200	-45.782	0.099
606.300	-52.490	0.099
606.400	-36.046	0.099
606.500	-41.924	0.099
606.600	-56.673	0.099
606.700	-41.353	0.099
606.800	-31.519	0.099
606.900	-42.008	0.099
607.000	-34.203	0.099
607.100	-44.141	0.099
607.200	-57.687	0.099
607.300	-29.743	0.099
607.400	-40.015	0.099
607.500	-45.307	0.099
607.600	-38.455	0.099
607.700	-39.376	0.099
607.800	-53.823	0.099
607.900	-51.849	0.099
608.000	-16.236	0.099
608.100	-35.225	0.099
608.200	-37.496	0.099
608.300	-37.489	0.099
608.400	-25.902	0.099
608.500	-34.615	0.099
608.600	-49.915	0.099
608.700	-42.694	0.099
608.800	-22.541	0.099
608.900	-54.123	0.099
609.000	-46.191	0.099
609.100	-33.988	0.099
609.200	-29.693	0.099
609.300	-32.108	0.099
609.400	-47.583	0.099
609.500	-43.551	0.099
609.600	-37.803	0.099
609.700	-55.708	0.099
609.800	-22.775	0.099
609.900	-35.605	0.099
610.000	-48.778	0.099
610.100	-45.773	0.099
610.200	-59.640	0.099
610.300	-36.851	0.099
610.400	-41.756	0.099
610.500	-31.967	0.099
610.600	-25.367	0.099
610.700	-52.612	0.099
610.800	-41.758	0.099
610.900	-18.969	0.099
611.000	-41.469	0.099
611.100	-46.150	0.099
611.200	-36.748	0.099
611.300	-20.442	0.099
611.400	-45.903	0.099
611.500	-34.306	0.099
611.600	-53.034	0.099
611.700	-36.446	0.099
611.800	-35.148	0.099
611.900	-31.474	0.099
612.000	-24.744	0.099
612.100	-53.113	0.099
612.200	-49.726	0.099
612.300	-50.549	0.099
612.400	-34.691	0.099
612.500	-34.188	0.099
612.600	-33.215	0.099
612.700	-51.617	0.099
612.800	-33.845	0.099
612.900	-32.714	0.099
613.000	-23.665	0.099
613.100	-26.118	0.099
613.200	-39.597	0.099
613.300	-41.033	0.099
613.400	-17.639	0.099
613.500	-34.505	0.099
613.600	-54.688	0.099
613.700	-43.698	0.099
613.800	-43.410	0.099
613.900	-27.411	0.099
614.000	-42.435	0.099
614.100	-43.256	0.099
614.200	-27.916	0.099
614.300	-59.721	0.099
614.400	-46.099	0.099
614.500	-44.995	0.099
614.600	-44.543	0.099
614.700	-24.629	0.099
614.800	-23.231	0.099
614.900	-52.968	0.099
615.000	-50.725	0.099
615.100	-37.850	0.099
615.200	-36.932	0.099
615.300	-36.936	0.099
615.400	-41.769	0.099
615.500	-46.902	0.099
615.600	-32.635	0.099
615.700	-41.400	0.099
615.800	-47.674	0.099
615.900	-41.784	0.099
616.000	-42.089	0.099
616.100	-33.213	0.099
616.200	-42.340	0.099
616.300	-38.106	0.099
616.400	-20.714	0.099
616.500	-45.569	0.099
616.600	-34.475	0.099
616.700	-38.930	0.099
616.800	-43.089	0.099
616.900	-47.973	0.099
617.000	-21.522	0.099
617.100	-43.651	0.099
617.200	-24.051	0.099
617.300	-30.594	0.099
617.400	-56.506	0.099
617.500	-19.988	0.099
617.600	-23.990	0.099
617.700	-32.630	0.099
617.800	-31.503	0.099
617.900	-44.872	0.099
618.000	-33.186	0.099
618.100	-4.337	0.099
618.200	-24.295	0.099
618.300	-34.212	0.099
618.400	-41.963	0.099
618.500	-53.357	0.099
618.600	-42.911	0.099
618.700	-27.845	0.099
618.800	-29.339	0.099
618.900	-55.449	0.099
619.000	-35.376	0.099
619.100	-36.152	0.099
619.200	-36.660	0.099
619.300	-25.281	0.099
619.400	-52.493	0.099
619.500	-39.125	0.099
619.600	-16.769	0.099
619.700	-48.291	0.099
619.800	-38.520	0.099
619.900	-50.167	0.099
620.000	-34.792	0.099
620.100	-28.590	0.099
620.200	-23.912	0.099
620.300	-35.796	0.099
620.400	-30.408	0.099
620.500	-34.760	0.099
620.600	-47.254	0.099
620.700	-18.558	0.099
620.800	-43.627	0.099
620.900	-35.865	0.099
621.000	-36.878	0.099
621.100	-51.972	0.099
621.200	-25.881	0.099
621.300	-17.839	0.099
621.400	-59.591	0.099
621.500	-39.110	0.099
621.600	-33.961	0.099
621.700	-27.997	0.099
621.800	-31.749	0.099
621.900	-13.874	0.099
622.000	-42.243	0.099
622.100	-29.715	0.099
622.200	-21.147	0.099
622.300	-40.495	0.099
622.400	-43.770	0.099
622.500	-31.884	0.099
622.600	-36.981	0.099
622.700	-37.775	0.099
622.800	-33.027	0.099
622.900	-29.295	0.099
623.000	-38.214	0.099
623.100	-27.537	0.099
623.200	-25.735	0.099
623.300	-29.525	0.099
623.400	-51.845	0.099
623.500	-38.864	0.099
623.600	-30.142	0.099
623.700	-35.495	0.099
623.800	-18.192	0.099
623.900	-31.960	0.099
624.000	-37.483	0.099
624.100	-36.837	0.099
624.200	-43.774	0.099
624.300	-43.931	0.099
624.400	-36.118	0.099
624.500	-14.568	0.099
624.600	-50.495	0.099
624.700	-31.419	0.099
624.800	-41.572	0.099
624.900	-38.973	0.099
625.000	-15.115	0.099
625.100	-13.947	0.099
625.200	-18.923	0.099
625.300	-37.760	0.099
625.400	-25.639	0.099
625.500	-28.568	0.099
625.600	-33.818	0.099
625.700	-39.315	0.099
625.800	-36.293	0.099
625.900	-28.905	0.099
626.000	-28.214	0.099
626.100	-43.342	0.099
626.200	-33.948	0.099
626.300	-37.763	0.099
626.400	-63.300	0.099
626.500	-23.472	0.099
626.600	-36.512	0.099
626.700	-16.479	0.099
626.800	-15.262	0.099
626.900	-29.927	0.099
627.000	-43.616	0.099
627.100	-21.539	0.099
627.200	-35.658	0.099
627.300	-31.307	0.099
627.400	-35.112	0.099
627.500	-26.144	0.099
627.600	-30.435	0.099
627.700	-21.183	0.099
627.800	-34.923	0.099
627.900	-52.675	0.099
628.000	-33.984	0.099
628.100	-22.637	0.099
628.200	-23.339	0.099
628.300	-22.793	0.099
628.400	-25.201	0.099
628.500	-51.968	0.099
628.600	-42.893	0.099
628.700	-32.136	0.099
628.800	-22.776	0.099
628.900	-35.192	0.099
629.000	-23.326	0.099
629.100	-44.454	0.099
629.200	-30.232	0.099
629.300	-45.558	0.099
629.400	-9.540	0.099
629.500	-25.827	0.099
629.600	-33.270	0.099
629.700	-27.215	0.099
629.800	-25.890	0.099
629.900	-41.039	0.099
630.000	-44.975	0.099
630.100	-45.129	0.099
630.200	-38.716	0.099
630.300	-21.157	0.099
630.400	-20.120	0.099
630.500	-21.962	0.099
630.600	-25.222	0.099
630.700	-16.404	0.099
630.800	13.631	0.099
630.900	28.050	0.099
631.000	27.794	0.099
631.100	17.565	0.099
631.200	37.202	0.099
631.300	49.757	0.099
631.400	27.436	0.099
631.500	30.002	0.099
631.600	36.137	0.099
631.700	19.371	0.099
631.800	12.269	0.099
631.900	37.660	0.099
632.000	51.258	0.099
632.100	50.989	0.099
632.200	25.585	0.099
632.300	32.527	0.099
632.400	10.389	0.099
632.500	36.777	0.100
632.600	49.300	0.099
632.700	35.706	0.099
632.800	34.399	0.100
632.900	45.954	0.099
633.000	38.470	0.099
633.100	41.086	0.099
633.200	22.546	0.099
633.300	31.900	0.100
633.400	16.657	0.099
633.500	36.024	0.100
633.600	53.160	0.099
633.700	41.721	0.099
633.800	27.781	0.100
633.900	33.007	0.100
634.000	28.948	0.099
634.100	46.180	0.100
634.200	31.685	0.099
634.300	27.564	0.099
634.400	23.970	0.099
634.500	31.123	0.100
634.600	15.868	0.099
634.700	39.481	0.100
634.800	15.977	0.099
634.900	26.120	0.099
635.000	-1.029	0.099
635.100	30.491	0.099
635.200	20.308	0.099
635.300	51.912	0.100
635.400	36.076	0.099
635.500	28.726	0.099
635.600	25.067	0.100
635.700	33.837	0.099
635.800	32.787	0.100
635.900	20.326	0.100
636.000	22.784	0.099
636.100	16.892	0.099
636.200	25.461	0.099
636.300	59.520	0.099
636.400	49.789	0.099
636.500	40.429	0.100
636.600	28.414	0.099
636.700	37.196	0.099
636.800	35.475	0.100
636.900	60.317	0.100
637.000	38.025	0.100
637.100	51.243	0.099
637.200	47.112	0.100
637.300	40.944	0.100
637.400	28.244	0.100
637.500	45.451	0.099
637.600	50.988	0.100
637.700	50.413	0.100
637.800	44.335	0.100
637.900	53.653	0.100
638.000	61.122	0.100
638.100	62.263	0.100
638.200	41.645	0.100
638.300	63.123	0.100
638.400	54.268	0.100
638.500	55.991	0.100
638.600	56.680	0.100
638.700	67.297	0.100
638.800	69.010	0.100
638.900	81.756	0.100
639.000	70.491	0.100
639.100	40.982	0.100
639.200	69.194	0.100
639.300	57.523	0.100
639.400	72.651	0.099
639.500	71.764	0.100
639.600	80.052	0.100
639.700	94.872	0.100
639.800	67.381	0.100
639.900	80.939	0.100
640.000	66.182	0.100
640.100	92.832	0.099
640.200	71.140	0.100
640.300	63.137	0.100
640.400	104.713	0.100
640.500	95.498	0.100
640.600	67.303	0.100
640.700	78.687	0.100
640.800	99.135	0.099
640.900	111.926	0.099
641.000	100.051	0.100
641.100	91.813	0.100
641.200	84.086	0.099
641.300	92.170	0.099
641.400	112.902	0.100
641.500	92.608	0.100
641.600	109.793	0.099
641.700	100.899	0.100
641.800	96.801	0.099
641.900	108.287	0.099
642.000	103.156	0.100
642.100	91.849	0.100
642.200	98.007	0.100
642.300	117.351	0.100
642.400	105.034	0.100
642.500	94.089	0.100
642.600	124.993	0.100
642.700	121.928	0.100
642.800	113.536	0.100
642.900	120.955	0.100
643.000	109.470	0.100
643.100	111.293	0.100
643.200	126.444	0.100
643.300	93.085	0.100
643.400	120.406	0.100
643.500	108.152	0.100
643.600	124.431	0.100
643.700	118.960	0.100
643.800	113.377	0.100
643.900	109.679	0.100
644.000	105.077	0.100
644.100	108.813	0.100
644.200	110.857	0.100
644.300	113.287	0.100
644.400	108.579	0.100
644.500	125.533	0.100
644.600	114.207	0.100
644.700	142.058	0.100
644.800	128.469	0.100
644.900	141.426	0.100
645.000	129.610	0.100
645.100	100.376	0.100
645.200	118.813	0.100
645.300	112.677	0.100
645.400	119.893	0.100
645.500	122.864	0.100
645.600	106.066	0.100
645.700	116.987	0.100
645.800	112.346	0.100
645.900	133.383	0.100
646.000	143.512	0.100
646.100	106.619	0.100
646.200	117.438	0.100
646.300	109.250	0.100
646.400	100.409	0.100
646.500	132.231	0.100
646.600	130.007	0.100
646.700	109.081	0.100
646.800	110.253	0.100
646.900	120.622	0.100
647.000	121.944	0.100
647.100	128.689	0.100
647.200	121.660	0.100
647.300	106.822	0.100
647.400	130.387	0.100
647.500	117.496	0.100
647.600	113.723	0.100
647.700	112.171	0.100
647.800	104.065	0.100
647.900	127.022	0.100
648.000	124.583	0.100
648.100	123.374	0.100
648.200	107.046	0.100
648.300	106.949	0.100
648.400	138.136	0.100
648.500	107.603	0.100
648.600	117.549	0.100
648.700	105.736	0.100
648.800	105.542	0.100
648.900	109.674	0.100
649.000	109.651	0.100
649.100	117.862	0.100
649.200	113.057	0.100
649.300	121.823	0.100
649.400	101.481	0.100
649.500	101.866	0.100
649.600	117.611	0.100
649.700	124.520	0.100
649.800	109.532	0.100
649.900	103.861	0.100
650.000	114.435	0.100
650.100	119.733	0.100
650.200	109.504	0.100
650.300	106.568	0.100
650.400	111.427	0.100
650.500	110.773	0.100
650.600	124.070	0.100
650.700	105.601	0.100
650.800	104.888	0.100
650.900	105.620	0.100
651.000	110.804	0.100
651.100	104.868	0.100
651.200	105.135	0.100
651.300	100.617	0.100
651.400	125.315	0.100
651.500	101.761	0.100
651.600	103.088	0.100
651.700	111.500	0.100
651.800	111.192	0.100
651.900	113.945	0.100
652.000	105.398	0.100
652.100	125.461	0.100
652.200	123.169	0.100
652.300	124.489	0.100
652.400	111.434	0.100
652.500	97.914	0.100
652.600	110.902	0.100
652.700	108.406	0.100
652.800	134.471	0.100
652.900	121.428	0.100
653.000	99.543	0.100
653.100	100.124	0.100
653.200	115.081	0.100
653.300	112.179	0.100
653.400	91.741	0.100
653.500	97.514	0.100
653.600	108.126	0.100
653.700	117.817	0.100
653.800	99.330	0.100
653.900	114.777	0.100
654.000	117.559	0.100
654.100	101.802	0.100
654.200	115.887	0.100
654.300	117.497	0.100
654.400	115.313	0.100
654.500	90.298	0.100
654.600	103.626	0.100
654.700	83.299	0.100
654.800	128.959	0.100
654.900	129.199	0.100
655.000	85.246	0.100
655.100	93.698	0.100
655.200	121.981	0.100
655.300	104.772	0.100
655.400	133.518	0.100
655.500	83.085	0.100
655.600	99.240	0.100
655.700	87.451	0.100
655.800	100.802	0.100
655.900	109.723	0.100
656.000	116.535	0.100
656.100	107.505	0.100
656.200	97.007	0.100
656.300	93.125	0.100
656.400	96.709	0.100
656.500	98.432	0.100
656.600	102.477	0.100
656.700	101.132	0.100
656.800	111.475	0.100
656.900	105.083	0.100
657.000	98.756	0.100
657.100	113.311	0.100
657.200	97.538	0.100
657.300	95.426	0.100
657.400	120.339	0.100
657.500	111.609	0.100
657.600	120.970	0.100
657.700	101.460	0.100
657.800	92.650	0.100
657.900	105.071	0.100
658.000	106.871	0.100
658.100	110.511	0.100
658.200	93.984	0.100
658.300	124.986	0.100
658.400	125.186	0.100
658.500	101.800	0.100
658.600	120.135	0.100
658.700	97.108	0.100
658.800	95.526	0.100
658.900	105.820	0.100
659.000	116.517	0.100
659.100	104.386	0.100
659.200	120.629	0.100
659.300	83.768	0.100
659.400	98.124	0.100
659.500	101.049	0.100
659.600	95.124	0.100
659.700	124.604	0.100
659.800	107.046	0.100
659.900	94.131	0.100
660.000	91.094	0.100
660.100	103.744	0.100
660.200	109.425	0.100
660.300	98.768	0.100
660.400	97.679	0.100
660.500	110.389	0.100
660.600	82.876	0.100
660.700	111.327	0.100
660.800	109.602	0.100
660.900	100.732	0.100
661.000	102.505	0.100
661.100	109.614	0.100
661.200	111.364	0.100
661.300	97.358	0.100
661.400	100.476	0.100
661.500	108.921	0.100
661.600	90.036	0.100
661.700	110.950	0.100
661.800	112.076	0.100
661.900	103.455	0.100
662.000	106.878	0.100
662.100	121.918	0.100
662.200	101.742	0.100
662.300	92.644	0.100
662.400	100.962	0.100
662.500	99.033	0.100
662.600	117.563	0.100
662.700	107.537	0.100
662.800	118.697	0.100
662.900	115.331	0.100
663.000	92.843	0.100
663.100	99.500	0.100
663.200	102.327	0.100
663.300	108.561	0.100
663.400	87.310	0.100
663.500	107.876	0.100
663.600	108.123	0.100
663.700	100.053	0.100
663.800	101.341	0.100
663.900	88.934	0.100
664.000	101.099	0.100
664.100	109.654	0.100
664.200	97.272	0.100
664.300	95.871	0.100
664.400	98.923	0.100
664.500	99.206	0.100
664.600	101.228	0.100
664.700	97.998	0.100
664.800	105.727	0.100
664.900	83.956	0.100
665.000	80.045	0.100
665.100	106.706	0.100
665.200	125.063	0.100
665.300	108.704	0.100
665.400	110.755	0.100
665.500	96.024	0.100
665.600	111.862	0.100
665.700	91.629	0.100
665.800	99.159	0.100
665.900	116.946	0.100
666.000	116.924	0.100
666.100	124.944	0.100
666.200	101.296	0.100
666.300	106.588	0.100
666.400	109.696	0.100
666.500	99.156	0.100
666.600	105.989	0.100
666.700	92.592	0.100
666.800	95.664	0.100
666.900	111.781	0.100
667.000	91.749	0.100
667.100	107.381	0.100
667.200	103.832	0.100
667.300	92.145	0.100
667.400	105.643	0.100
667.500	98.256	0.100
667.600	89.647	0.100
667.700	78.117	0.100
667.800	114.931	0.100
667.900	121.688	0.100
668.000	111.512	0.100
668.100	105.366	0.100
668.200	106.190	0.100
668.300	105.932	0.100
668.400	104.013	0.100
668.500	86.145	0.100
668.600	93.840	0.100
668.700	125.105	0.100
668.800	83.234	0.100
668.900	102.879	0.100
669.000	101.758	0.100
669.100	107.188	0.100
669.200	96.348	0.100
669.300	92.255	0.100
669.400	99.282	0.100
669.500	110.925	0.100
669.600	100.008	0.100
669.700	95.692	0.100
669.800	73.194	0.100
669.900	99.760	0.100
670.000	108.518	0.100
670.100	102.461	0.100
670.200	101.669	0.100
670.300	98.534	0.100
670.400	85.325	0.100
670.500	90.368	0.100
670.600	80.590	0.100
670.700	102.893	0.100
670.800	109.057	0.100
670.900	107.669	0.100
671.000	89.182	0.100
671.100	104.505	0.100
671.200	92.299	0.100
671.300	114.832	0.100
671.400	105.538	0.100
671.500	99.103	0.100
671.600	95.079	0.100
671.700	114.389	0.100
671.800	104.330	0.100
671.900	90.001	0.100
672.000	97.819	0.100
672.100	99.452	0.100
672.200	105.299	0.100
672.300	88.215	0.100
672.400	77.345	0.100
672.500	102.205	0.100
672.600	98.236	0.100
672.700	109.269	0.100
672.800	81.691	0.100
672.900	108.904	0.100
673.000	104.115	0.100
673.100	99.900	0.100
673.200	86.189	0.100
673.300	98.733	0.100
673.400	100.840	0.100
673.500	105.162	0.100
673.600	87.534	0.100
673.700	94.957	0.100
673.800	89.037	0.100
673.900	96.652	0.100
674.000	98.805	0.100
674.100	112.427	0.100
674.200	89.524	0.100
674.300	95.739	0.100
674.400	104.964	0.100
674.500	94.163	0.100
674.600	103.097	0.100
674.700	102.593	0.100
674.800	88.175	0.100
674.900	95.305	0.100
675.000	95.007	0.100
675.100	108.176	0.100
675.200	98.098	0.100
675.300	97.805	0.100
675.400	83.185	0.100
675.500	100.099	0.100
675.600	116.058	0.100
675.700	107.841	0.100
675.800	92.672	0.100
675.900	88.603	0.100
676.000	111.804	0.100
676.100	116.912	0.100
676.200	92.537	0.100
676.300	110.613	0.100
676.400	87.157	0.100
676.500	102.986	0.100
676.600	104.974	0.100
676.700	95.460	0.100
676.800	98.883	0.100
676.900	104.397	0.100
677.000	77.655	0.100
677.100	90.709	0.100
677.200	115.618	0.100
677.300	92.954	0.100
677.400	83.475	0.100
677.500	99.252	0.100
677.600	82.872	0.100
677.700	79.370	0.100
677.800	100.528	0.100
677.900	114.423	0.100
678.000	84.374	0.100
678.100	111.014	0.100
678.200	105.060	0.100
678.300	94.486	0.100
678.400	91.353	0.100
678.500	108.015	0.100
678.600	105.179	0.100
678.700	96.487	0.100
678.800	98.772	0.100
678.900	115.732	0.100
679.000	77.462	0.100
679.100	94.993	0.100
679.200	93.947	0.100
679.300	117.892	0.100
679.400	114.212	0.100
679.500	89.942	0.100
679.600	105.422	0.100
679.700	82.350	0.100
679.800	99.040	0.100
679.900	96.218	0.100
680.000	105.614	0.100
680.100	85.054	0.100
680.200	99.133	0.100
680.300	106.951	0.100
680.400	93.176	0.100
680.500	80.116	0.100
680.600	88.867	0.100
680.700	99.339	0.100
680.800	99.587	0.100
680.900	119.299	0.100
681.000	95.070	0.100
681.100	88.239	0.100
681.200	98.307	0.100
681.300	107.509	0.100
681.400	97.334	0.100
681.500	102.005	0.100
681.600	91.713	0.100
681.700	91.203	0.100
681.800	101.398	0.100
681.900	95.121	0.100
682.000	106.001	0.100
682.100	112.676	0.100
682.200	97.516	0.100
682.300	98.014	0.100
682.400	86.069	0.100
682.500	81.561	0.100
682.600	105.026	0.100
682.700	108.941	0.100
682.800	100.100	0.100
682.900	99.354	0.100
683.000	93.640	0.100
683.100	101.997	0.100
683.200	103.400	0.100
683.300	87.457	0.100
683.400	74.181	0.100
683.500	97.587	0.100
683.600	117.721	0.100
683.700	108.261	0.100
683.800	103.507	0.100
683.900	74.167	0.100
684.000	98.568	0.100
684.100	98.320	0.100
684.200	82.821	0.100
684.300	111.583	0.100
684.400	83.769	0.100
684.500	110.917	0.100
684.600	84.519	0.100
684.700	90.432	0.100
684.800	97.439	0.100
684.900	89.542	0.100
685.000	82.505	0.100
685.100	103.716	0.100
685.200	79.143	0.100
685.300	101.226	0.100
685.400	92.696	0.100
685.500	90.206	0.100
685.600	97.399	0.100
685.700	87.197	0.100
685.800	102.603	0.100
685.900	104.477	0.100
686.000	86.048	0.100
686.100	102.484	0.100
686.200	111.437	0.100
686.300	88.497	0.100
686.400	91.003	0.100
686.500	106.889	0.100
686.600	99.747	0.100
686.700	82.232	0.100
686.800	85.588	0.100
686.900	101.169	0.100
687.000	79.777	0.100
687.100	102.880	0.100
687.200	105.671	0.100
687.300	101.701	0.100
687.400	104.897	0.100
687.500	86.344	0.100
687.600	93.279	0.100
687.700	76.714	0.100
687.800	92.713	0.100
687.900	87.943	0.100
688.000	104.828	0.100
688.100	104.974	0.100
688.200	97.047	0.100
688.300	96.279	0.100
688.400	87.804	0.100
688.500	93.981	0.100
688.600	85.226	0.100
688.700	105.466	0.100
688.800	100.722	0.100
688.900	103.249	0.100
689.000	93.602	0.100
689.100	96.711	0.100
689.200	106.620	0.100
689.300	99.370	0.100
689.400	97.372	0.100
689.500	92.179	0.100
689.600	71.884	0.100
689.700	88.373	0.100
689.800	89.094	0.100
689.900	105.964	0.100
690.000	82.626	0.100
690.100	91.583	0.100
690.200	106.791	0.100
690.300	103.490	0.100
690.400	56.541	0.100
690.500	73.397	0.100
690.600	55.601	0.100
690.700	42.518	0.100
690.800	49.282	0.100
690.900	25.088	0.100
691.000	35.001	0.100
691.100	27.499	0.100
691.200	1.668	0.100
691.300	21.318	0.100
691.400	12.556	0.100
691.500	-3.758	0.100
691.600	-6.319	0.100
691.700	-6.207	0.100
691.800	-0.759	0.100
691.900	0.045	0.100
692.000	-15.055	0.100
692.100	-14.229	0.100
692.200	-30.782	0.100
692.300	-12.235	0.100
692.400	-6.350	0.100
692.500	-37.290	0.100
692.600	-7.231	0.100
692.700	-26.802	0.100
692.800	-33.526	0.100
692.900	-25.124	0.100
693.000	-42.917	0.100
693.100	-30.659	0.100
693.200	-20.475	0.100
693.300	-19.773	0.100
693.400	-21.300	0.100
693.500	-55.167	0.100
693.600	-35.678	0.100
693.700	-44.522	0.100
693.800	-28.841	0.100
693.900	-26.839	0.100
694.000	-40.724	0.100
694.100	-31.861	0.100
694.200	-35.846	0.100
694.300	-11.247	0.100
694.400	-31.599	0.100
694.500	-41.875	0.100
694.600	-33.905	0.100
694.700	-44.529	0.100
694.800	-25.849	0.100
694.900	-40.140	0.100
695.000	-28.497	0.100
695.100	-38.656	0.100
695.200	-40.788	0.100
695.300	-19.282	0.100
695.400	-44.618	0.100
695.500	-14.233	0.100
695.600	-57.234	0.100
695.700	-39.107	0.100
695.800	-13.806	0.100
695.900	-41.593	0.100
696.000	-32.393	0.100
696.100	-23.095	0.100
696.200	-40.827	0.100
696.300	-34.761	0.100
696.400	-26.904	0.100
696.500	-34.382	0.100
696.600	-20.924	0.100
696.700	-45.318	0.100
696.800	-26.424	0.100
696.900	-35.963	0.100
697.000	-48.902	0.100
697.100	-34.065	0.100
697.200	-18.817	0.100
697.300	-29.757	0.100
697.400	-29.992	0.100
697.500	-25.818	0.100
697.600	-29.383	0.100
697.700	-31.636	0.100
697.800	-27.845	0.100
697.900	-38.402	0.100
698.000	-55.769	0.100
698.100	-32.668	0.100
698.200	-23.557	0.100
698.300	-36.111	0.100
698.400	-32.432	0.100
698.500	-31.648	0.100
698.600	-46.823	0.100
698.700	-46.164	0.100
698.800	-34.913	0.100
698.900	-24.310	0.100
699.000	-26.730	0.100
699.100	-50.597	0.100
699.200	-38.319	0.100
699.300	-47.838	0.100
699.400	-30.482	0.100
699.500	-23.083	0.100
699.600	-31.622	0.100
699.700	-38.552	0.100
699.800	-25.880	0.100
699.900	-32.608	0.100
700.000	-22.610	0.100
700.100	-41.559	0.100
700.200	-47.077	0.100
700.300	-38.691	0.100
700.400	-21.686	0.100
700.500	-38.166	0.100
700.600	-41.270	0.100
700.700	-48.539	0.100
700.800	-24.805	0.100
700.900	-56.256	0.100
701.000	-44.267	0.100
701.100	-38.703	0.100
701.200	-33.348	0.100
701.300	-40.970	0.100
701.400	-32.734	0.100
701.500	-40.530	0.100
701.600	-26.722	0.100
701.700	-41.091	0.100
701.800	-38.996	0.100
701.900	-17.833	0.100
702.000	-41.603	0.100
702.100	-41.810	0.100
702.200	-42.808	0.100
702.300	-23.308	0.099
702.400	-58.319	0.099
702.500	-50.101	0.100
702.600	-35.884	0.100
702.700	-43.222	0.100
702.800	-38.577	0.099
702.900	-46.379	0.099
703.000	-24.545	0.099
703.100	-38.748	0.100
703.200	-69.347	0.099
703.300	-46.105	0.099
703.400	-40.422	0.099
703.500	-40.540	0.099
703.600	-36.435	0.099
703.700	-45.361	0.099
703.800	-49.371	0.099
703.900	-28.726	0.100
704.000	-40.324	0.099
704.100	-39.545	0.099
704.200	-50.808	0.099
704.300	-38.249	0.099
704.400	-40.314	0.099
704.500	-46.345	0.099
704.600	-38.356	0.099
704.700	-60.873	0.099
704.800	-49.036	0.099
704.900	-27.745	0.099
705.000	-39.397	0.099
705.100	-68.588	0.099
705.200	-48.587	0.099
705.300	-46.254	0.099
705.400	-41.101	0.099
705.500	-36.710	0.099
705.600	-33.310	0.099
705.700	-46.456	0.099
705.800	-63.444	0.099
705.900	-64.326	0.099
706.000	-66.037	0.099
706.100	-43.151	0.099
706.200	-24.200	0.099
706.300	-31.156	0.099
706.400	-42.996	0.099
706.500	-40.788	0.099
706.600	-36.751	0.099
706.700	-41.555	0.099
706.800	-57.777	0.099
706.900	-56.753	0.099
707.000	-63.266	0.099
707.100	-37.568	0.099
707.200	-31.843	0.099
707.300	-64.539	0.099
707.400	-38.916	0.099
707.500	-36.654	0.099
707.600	-26.999	0.099
707.700	-48.401	0.099
707.800	-47.527	0.099
707.900	-50.838	0.099
708.000	-55.278	0.099
708.100	-62.812	0.099
708.200	-41.897	0.099
708.300	-44.987	0.099
708.400	-57.454	0.099
708.500	-52.426	0.099
708.600	-34.493	0.099
708.700	-36.013	0.099
708.800	-41.462	0.099
708.900	-66.292	0.099
709.000	-51.665	0.099
709.100	-31.003	0.099
709.200	-56.292	0.099
709.300	-55.943	0.099
709.400	-51.738	0.099
709.500	-54.367	0.099
709.600	-52.686	0.099
709.700	-47.212	0.099
709.800	-82.194	0.099
709.900	-35.770	0.099
710.000	-58.770	0.099
710.100	-47.781	0.099
710.200	-40.723	0.099
710.300	-48.611	0.099
710.400	-55.624	0.099
710.500	-54.467	0.099
710.600	-61.873	0.099
710.700	-44.355	0.099
710.800	-40.980	0.099
710.900	-61.025	0.099
711.000	-59.411	0.099
711.100	-76.144	0.099
711.200	-62.588	0.099
711.300	-52.223	0.099
711.400	-54.003	0.099
711.500	-41.166	0.099
711.600	-54.357	0.099
711.700	-54.715	0.099
711.800	-46.521	0.099
711.900	-65.747	0.099
712.000	-49.988	0.099
712.100	-67.878	0.099
712.200	-59.837	0.099
712.300	-41.001	0.099
712.400	-57.518	0.099
712.500	-65.524	0.099
712.600	-66.097	0.099
712.700	-66.089	0.099
712.800	-50.490	0.099
712.900	-69.047	0.099
713.000	-40.691	0.099
713.100	-60.459	0.099
713.200	-69.632	0.099
713.300	-51.566	0.099
713.400	-45.971	0.099
713.500	-42.654	0.099
713.600	-55.376	0.099
713.700	-76.948	0.099
713.800	-37.769	0.099
713.900	-52.941	0.099
714.000	-61.131	0.099
714.100	-64.139	0.099
714.200	-53.227	0.099
714.300	-61.232	0.099
714.400	-55.721	0.099
714.500	-48.333	0.099
714.600	-56.338	0.099
714.700	-51.109	0.099
714.800	-54.116	0.099
714.900	-71.722	0.099
715.000	-60.307	0.099
715.100	-48.767	0.099
715.200	-66.235	0.099
715.300	-48.117	0.099
715.400	-69.859	0.099
715.500	-69.117	0.099
715.600	-75.581	0.099
715.700	-61.028	0.099
715.800	-58.892	0.099
715.900	-48.641	0.099
716.000	-64.496	0.099
716.100	-62.838	0.099
716.200	-58.579	0.099
716.300	-65.587	0.099
716.400	-59.216	0.099
716.500	-60.117	0.099
716.600	-60.629	0.099
716.700	-79.561	0.099
716.800	-57.586	0.099
716.900	-60.151	0.099
717.000	-65.031	0.099
717.100	-62.355	0.099
717.200	-71.952	0.099
717.300	-43.553	0.099
717.400	-64.339	0.099
717.500	-72.904	0.099
717.600	-33.041	0.099
717.700	-56.666	0.099
717.800	-54.558	0.099
717.900	-53.833	0.099
718.000	-59.148	0.099
718.100	-77.453	0.099
718.200	-67.988	0.099
718.300	-55.824	0.099
718.400	-64.219	0.099
718.500	-63.778	0.099
718.600	-59.102	0.099
718.700	-67.759	0.099
718.800	-57.805	0.099
718.900	-56.598	0.099
719.000	-65.881	0.099
719.100	-62.016	0.099
719.200	-79.507	0.099
719.300	-56.721	0.099
719.400	-53.805	0.099
719.500	-65.427	0.099
719.600	-72.770	0.099
719.700	-55.832	0.099
719.800	-43.538	0.099
719.900	-59.875	0.099
720.000	-64.158	0.099
720.100	-64.852	0.099
720.200	-64.161	0.099
720.300	-61.721	0.099
720.400	-80.061	0.099
720.500	-58.982	0.099
720.600	-57.600	0.099
720.700	-57.774	0.099
720.800	-68.853	0.099
720.900	-60.043	0.099
721.000	-78.787	0.099
721.100	-48.778	0.099
721.200	-57.106	0.099
721.300	-57.856	0.099
721.400	-52.728	0.099
721.500	-70.333	0.099
721.600	-63.477	0.099
721.700	-56.295	0.099
721.800	-48.333	0.099
721.900	-63.342	0.099
722.000	-54.378	0.099
722.100	-66.150	0.099
722.200	-75.708	0.099
722.300	-64.713	0.099
722.400	-58.383	0.099
722.500	-46.111	0.099
722.600	-65.156	0.099
722.700	-70.853	0.099
722.800	-57.280	0.099
722.900	-70.346	0.099
723.000	-65.561	0.099
723.100	-61.415	0.099
723.200	-51.450	0.099
723.300	-57.832	0.099
723.400	-57.533	0.099
723.500	-69.338	0.099
723.600	-64.042	0.099
723.700	-56.781	0.099
723.800	-47.121	0.099
723.900	-71.964	0.099
724.000	-74.404	0.099
724.100	-41.665	0.099
724.200	-52.033	0.099
724.300	-61.898	0.099
724.400	-62.549	0.099
724.500	-53.991	0.099
724.600	-60.901	0.099
724.700	-52.382	0.099
724.800	-58.491	0.099
724.900	-55.949	0.099
725.000	-62.076	0.100
725.100	-59.037	0.099
725.200	-66.021	0.099
725.300	-76.266	0.099
725.400	-53.516	0.099
725.500	-49.980	0.099
725.600	-41.409	0.099
725.700	-61.178	0.099
725.800	-61.218	0.099
725.900	-55.957	0.099
726.000	-53.285	0.099
726.100	-54.508	0.099
726.200	-67.439	0.099
726.300	-52.729	0.099
726.400	-50.797	0.099
726.500	-72.784	0.099
726.600	-71.192	0.099
726.700	-57.183	0.099
726.800	-58.601	0.099
726.900	-46.474	0.099
727.000	-26.984	0.099
727.100	-65.058	0.099
727.200	-72.624	0.099
727.300	-62.171	0.099
727.400	-44.534	0.099
727.500	-73.661	0.099
727.600	-55.201	0.099
727.700	-46.471	0.099
727.800	-71.950	0.099
727.900	-62.220	0.099
728.000	-60.134	0.099
728.100	-52.726	0.099
728.200	-62.879	0.099
728.300	-47.366	0.099
728.400	-44.317	0.099
728.500	-49.371	0.099
728.600	-46.010	0.099
728.700	-63.518	0.099
728.800	-71.715	0.099
728.900	-63.975	0.099
729.000	-52.060	0.099
729.100	-43.587	0.099
729.200	-59.121	0.099
729.300	-40.670	0.099
729.400	-54.604	0.099
729.500	-60.297	0.099
729.600	-60.304	0.099
729.700	-51.566	0.099
729.800	-63.429	0.099
729.900	-41.333	0.099
730.000	-58.097	0.099
730.100	-50.254	0.099
730.200	-78.203	0.099
730.300	-52.223	0.099
730.400	-72.904	0.099
730.500	-53.468	0.099
730.600	-59.029	0.099
730.700	-57.983	0.099
730.800	-42.974	0.099
730.900	-47.413	0.099
731.000	-57.795	0.099
731.100	-69.235	0.099
731.200	-37.565	0.099
731.300	-53.368	0.099
731.400	-37.837	0.099
731.500	-54.685	0.099
731.600	-57.622	0.099
731.700	-75.863	0.099
731.800	-52.474	0.099
731.900	-51.732	0.099
732.000	-57.280	0.099
732.100	-59.418	0.099
732.200	-82.527	0.099
732.300	-45.517	0.099
732.400	-43.429	0.099
732.500	-60.607	0.099
732.600	-47.574	0.099
732.700	-57.925	0.099
732.800	-61.268	0.099
732.900	-51.029	0.099
733.000	-59.788	0.099
733.100	-48.361	0.099
733.200	-65.341	0.099
733.300	-44.156	0.099
733.400	-57.989	0.099
733.500	-62.644	0.099
733.600	-43.808	0.099
733.700	-52.683	0.099
733.800	-41.168	0.099
733.900	-52.760	0.099
734.000	-55.115	0.099
734.100	-34.349	0.099
734.200	-45.305	0.099
734.300	-55.096	0.099
734.400	-69.753	0.099
734.500	-69.034	0.099
734.600	-35.261	0.099
734.700	-67.444	0.099
734.800	-46.996	0.099
734.900	-45.647	0.099
735.000	-49.609	0.099
735.100	-39.340	0.099
735.200	-60.663	0.099
735.300	-56.637	0.099
735.400	-56.092	0.099
735.500	-42.145	0.099
735.600	-38.263	0.099
735.700	-46.652	0.099
735.800	-48.187	0.099
735.900	-59.014	0.099
736.000	-64.551	0.099
736.100	-41.720	0.099
736.200	-63.449	0.099
736.300	-60.210	0.099
736.400	-37.848	0.099
736.500	-66.606	0.099
736.600	-39.712	0.099
736.700	-54.478	0.099
736.800	-31.585	0.099
736.900	-45.760	0.099
737.000	-52.861	0.099
737.100	-58.424	0.099
737.200	-48.875	0.099
737.300	-32.503	0.099
737.400	-57.342	0.099
737.500	-39.520	0.099
737.600	-46.823	0.099
737.700	-39.904	0.099
737.800	-77.196	0.099
737.900	-56.621	0.099
738.000	-56.225	0.099
738.100	-49.588	0.099
738.200	-65.352	0.099
738.300	-52.419	0.099
738.400	-45.967	0.099
738.500	-53.820	0.099
738.600	-45.061	0.099
738.700	-50.757	0.099
738.800	-60.847	0.099
738.900	-41.191	0.099
739.000	-60.120	0.099
739.100	-48.679	0.099
739.200	-34.993	0.099
739.300	-50.454	0.099
739.400	-52.292	0.099
739.500	-39.278	0.099
739.600	-49.974	0.099
739.700	-69.739	0.099
739.800	-63.498	0.099
739.900	-59.941	0.099
740.000	-28.420	0.099
740.100	-31.975	0.099
740.200	-39.375	0.099
740.300	-56.418	0.099
740.400	-48.932	0.099
740.500	-65.621	0.099
740.600	-61.651	0.099
740.700	-48.243	0.099
740.800	-34.704	0.099
740.900	-63.640	0.099
741.000	-60.612	0.099
741.100	-62.856	0.099
741.200	-38.319	0.099
741.300	-21.827	0.099
741.400	-43.295	0.099
741.500	-42.882	0.099
741.600	-49.076	0.099
741.700	-54.299	0.099
741.800	-80.518	0.099
741.900	-42.369	0.099
742.000	-38.282	0.099
742.100	-64.435	0.099
742.200	-41.351	0.099
742.300	-57.905	0.099
742.400	-42.797	0.099
742.500	-46.225	0.099
742.600	-52.352	0.099
742.700	-58.743	0.099
742.800	-51.486	0.099
742.900	-53.119	0.099
743.000	-54.219	0.099
743.100	-46.654	0.099
743.200	-42.217	0.099
743.300	-42.023	0.099
743.400	-49.855	0.099
743.500	-46.340	0.099
743.600	-44.042	0.099
743.700	-47.622	0.099
743.800	-48.486	0.099
743.900	-41.583	0.099
744.000	-42.403	0.099
744.100	-24.568	0.099
744.200	-45.327	0.099
744.300	-71.342	0.099
744.400	-53.983	0.099
744.500	-73.574	0.099
744.600	-23.227	0.099
744.700	-37.507	0.099
744.800	-49.343	0.099
744.900	-49.083	0.099
745.000	-44.896	0.099
745.100	-19.879	0.099
745.200	-39.635	0.099
745.300	-61.946	0.099
745.400	-58.500	0.099
745.500	-49.835	0.099
745.600	-51.068	0.099
745.700	-62.432	0.099
745.800	-53.057	0.099
745.900	-38.279	0.099
746.000	-55.764	0.099
746.100	-42.276	0.099
746.200	-50.943	0.099
746.300	-57.946	0.099
746.400	-55.711	0.099
746.500	-51.530	0.099
746.600	-42.149	0.099
746.700	-49.694	0.099
746.800	-51.096	0.099
746.900	-45.191	0.099
747.000	-65.304	0.099
747.100	-73.911	0.099
747.200	-30.104	0.099
747.300	-49.868	0.099
747.400	-39.283	0.099
747.500	-42.386	0.099
747.600	-44.376	0.099
747.700	-43.757	0.099
747.800	-40.480	0.099
747.900	-32.817	0.099
748.000	-35.318	0.099
748.100	-62.068	0.099
748.200	-75.347	0.099
748.300	-46.978	0.099
748.400	-56.814	0.099
748.500	-37.483	0.099
748.600	-38.935	0.099
748.700	-50.365	0.099
748.800	-55.352	0.099
748.900	-51.151	0.099
749.000	-52.999	0.099
749.100	-60.408	0.099
749.200	-30.304	0.099
749.300	-48.386	0.099
749.400	-50.601	0.099
749.500	-48.459	0.099
749.600	-58.484	0.099
749.700	-42.145	0.099
749.800	-36.846	0.099
749.900	-52.858	0.099
750.000	-45.356	0.099
750.100	-34.304	0.099
750.200	-50.420	0.099
750.300	-48.330	0.099
750.400	-32.216	0.099
750.500	-51.810	0.099
750.600	-24.609	0.099
750.700	-42.162	0.099
750.800	-49.652	0.099
750.900	-46.029	0.099
751.000	-47.611	0.099
751.100	-60.955	0.099
751.200	-37.246	0.099
751.300	-50.263	0.099
751.400	-50.487	0.099
751.500	-51.366	0.099
751.600	-53.953	0.099
751.700	-47.637	0.099
751.800	-34.809	0.099
751.900	-42.109	0.099
752.000	-33.007	0.099
752.100	-32.152	0.099
752.200	-40.610	0.099
752.300	-49.088	0.099
752.400	-40.104	0.099
752.500	-46.423	0.099
752.600	-61.063	0.099
752.700	-26.394	0.099
752.800	-39.404	0.099
752.900	-65.967	0.099
753.000	-42.727	0.099
753.100	-26.503	0.099
753.200	-50.877	0.099
753.300	-18.170	0.099
753.400	-39.671	0.099
753.500	-42.206	0.099
753.600	-46.749	0.099
753.700	-42.821	0.099
753.800	-46.068	0.099
753.900	-45.125	0.099
754.000	-52.429	0.099
754.100	-33.667	0.099
754.200	-35.768	0.099
754.300	-49.246	0.099
754.400	-45.342	0.099
754.500	-25.111	0.099
754.600	-48.104	0.099
754.700	-33.327	0.099
754.800	-62.848	0.099
754.900	-41.636	0.099
755.000	-45.741	0.099
755.100	-45.473	0.099
755.200	-56.534	0.099
755.300	-42.009	0.099
755.400	-41.362	0.099
755.500	-30.609	0.099
755.600	-49.588	0.099
755.700	-44.229	0.099
755.800	-52.860	0.099
755.900	-47.631	0.099
756.000	-45.916	0.099
756.100	-44.067	0.099
756.200	-48.297	0.099
756.300	-51.233	0.099
756.400	-50.421	0.099
756.500	-35.118	0.099
756.600	-48.165	0.099
756.700	-20.882	0.099
756.800	-38.217	0.099
756.900	-34.179	0.099
757.000	-57.687	0.099
757.100	-39.511	0.099
757.200	-55.706	0.099
757.300	-42.658	0.099
757.400	-44.753	0.099
757.500	-37.077	0.099
757.600	-28.865	0.099
757.700	-59.827	0.099
757.800	-41.426	0.099
757.900	-48.479	0.099
758.000	-44.072	0.099
758.100	-30.494	0.099
758.200	-36.518	0.099
758.300	-41.175	0.099
758.400	-40.520	0.099
758.500	-40.848	0.099
758.600	-56.312	0.099
758.700	-33.643	0.099
758.800	-33.854	0.099
758.900	-45.200	0.099
759.000	-42.164	0.099
759.100	-39.235	0.099
759.200	-26.386	0.099
759.300	-23.421	0.099
759.400	-42.684	0.099
759.500	-41.833	0.099
759.600	-38.989	0.099
759.700	-43.895	0.099
759.800	-33.435	0.099
759.900	-42.700	0.099
760.000	-36.588	0.099
760.100	-39.990	0.099
760.200	-39.477	0.099
760.300	-55.566	0.099
760.400	-47.280	0.099
760.500	-48.454	0.099
760.600	-39.409	0.099
760.700	-50.634	0.099
760.800	-54.883	0.099
760.900	-40.662	0.099
761.000	-34.556	0.099
761.100	-28.919	0.099
761.200	-38.272	0.099
761.300	-24.257	0.099
761.400	-44.408	0.099
761.500	-39.269	0.099
761.600	-23.691	0.099
761.700	-47.718	0.099
761.800	-49.455	0.099
761.900	-21.828	0.099
762.000	-35.032	0.099
762.100	-46.494	0.099
762.200	-62.419	0.099
762.300	-37.227	0.099
762.400	-37.457	0.099
762.500	-32.479	0.099
762.600	-31.226	0.099
762.700	-34.158	0.099
762.800	-45.755	0.099
762.900	-62.719	0.099
763.000	-23.551	0.099
763.100	-48.507	0.099
763.200	-34.493	0.099
763.300	-34.926	0.099
763.400	-37.658	0.099
763.500	-35.225	0.099
763.600	-44.623	0.099
763.700	-49.126	0.099
763.800	-39.972	0.099
763.900	-43.260	0.099
764.000	-30.754	0.099
764.100	-27.781	0.099
764.200	-47.861	0.099
764.300	-42.070	0.099
764.400	-27.539	0.099
764.500	-36.091	0.099
764.600	-35.530	0.099
764.700	-40.311	0.099
764.800	-32.239	0.099
764.900	-53.854	0.099
765.000	-46.292	0.099
765.100	-27.628	0.099
765.200	-24.290	0.099
765.300	-43.688	0.099
765.400	-41.736	0.099
765.500	-63.448	0.099
765.600	-20.907	0.099
765.700	-33.009	0.099
765.800	-23.757	0.099
765.900	-45.594	0.099
766.000	-43.163	0.099
766.100	-47.355	0.099
766.200	-42.771	0.099
766.300	-39.180	0.099
766.400	-29.978	0.099
766.500	-31.496	0.099
766.600	-33.521	0.099
766.700	-36.778	0.099
766.800	-39.320	0.099
766.900	-30.811	0.099
767.000	-54.429	0.099
767.100	-37.945	0.099
767.200	-30.595	0.099
767.300	-45.265	0.099
767.400	-47.897	0.099
767.500	-49.212	0.099
767.600	-54.467	0.099
767.700	-31.116	0.099
767.800	-39.847	0.099
767.900	-30.730	0.099
768.000	-38.327	0.099
768.100	-41.196	0.099
768.200	-39.269	0.099
768.300	-25.287	0.099
768.400	-34.655	0.099
768.500	-30.175	0.099
768.600	-29.970	0.099
768.700	-36.197	0.099
768.800	-33.182	0.099
768.900	-34.561	0.099
769.000	-32.789	0.099
769.100	-29.589	0.099
769.200	-34.217	0.099
769.300	-55.739	0.099
769.400	-28.284	0.099
769.500	-33.317	0.099
769.600	-42.898	0.099
769.700	-38.969	0.099
769.800	-43.514	0.099
769.900	-32.107	0.099
770.000	-34.690	0.099
770.100	-22.515	0.099
770.200	-46.931	0.099
770.300	-45.674	0.099
770.400	-30.919	0.099
770.500	-33.537	0.099
770.600	-36.715	0.099
770.700	-38.374	0.099
770.800	-31.894	0.099
770.900	-48.029	0.099
771.000	-31.158	0.099
771.100	-28.683	0.099
771.200	-28.450	0.099
771.300	-43.973	0.099
771.400	-40.911	0.099
771.500	-39.990	0.099
771.600	-13.173	0.099
771.700	-34.999	0.099
771.800	-36.057	0.099
771.900	-34.912	0.099
772.000	-36.775	0.099
772.100	-37.589	0.099
772.200	-34.506	0.099
772.300	-35.970	0.099
772.400	-52.664	0.099
772.500	-26.885	0.099
772.600	-37.756	0.099
772.700	-37.777	0.099
772.800	-44.559	0.099
772.900	-31.368	0.099
773.000	-20.391	0.099
773.100	-35.858	0.099
773.200	-27.250	0.099
773.300	-63.028	0.099
773.400	-52.380	0.099
773.500	-48.994	0.099
773.600	-22.575	0.099
773.700	-53.291	0.099
773.800	-19.738	0.099
773.900	-12.989	0.099
774.000	-36.040	0.099
774.100	-49.562	0.099
774.200	-28.732	0.099
774.300	-28.378	0.099
774.400	-58.561	0.099
774.500	-44.855	0.099
774.600	-25.303	0.099
774.700	-28.152	0.099
774.800	-19.556	0.099
774.900	-30.001	0.099
775.000	-35.965	0.099
775.100	-38.927	0.099
775.200	-51.718	0.099
775.300	-47.572	0.099
775.400	-7.338	0.099
775.500	-38.779	0.099
775.600	-46.490	0.099
775.700	-17.187	0.099
775.800	-31.572	0.099
775.900	-37.199	0.099
776.000	-41.129	0.099
776.100	-53.077	0.099
776.200	-25.622	0.099
776.300	-22.513	0.099
776.400	-22.343	0.099
776.500	-20.151	0.099
776.600	-44.082	0.099
776.700	-52.354	0.099
776.800	-32.845	0.099
776.900	-17.075	0.099
777.000	-31.636	0.099
777.100	-34.703	0.099
777.200	-20.485	0.099
777.300	-35.498	0.099
777.400	-37.622	0.099
777.500	-35.691	0.099
777.600	-52.211	0.099
777.700	-36.035	0.099
777.800	-33.531	0.099
777.900	-43.949	0.099
778.000	-41.816	0.099
778.100	-28.867	0.099
778.200	-29.860	0.099
778.300	-44.042	0.099
778.400	-27.983	0.099
778.500	-31.448	0.099
778.600	-26.887	0.099
778.700	-46.738	0.099
778.800	-31.707	0.099
778.900	-34.327	0.099
779.000	-38.480	0.099
779.100	-25.025	0.099
779.200	-28.917	0.099
779.300	-36.378	0.099
779.400	-41.401	0.099
779.500	-44.729	0.099
779.600	-32.093	0.099
779.700	-20.893	0.099
779.800	-42.012	0.099
779.900	-34.087	0.099
780.000	-16.603	0.099
780.100	-52.059	0.099
780.200	-30.117	0.099
780.300	-44.965	0.099
780.400	-32.685	0.099
780.500	-38.629	0.099
780.600	-13.753	0.099
780.700	-18.726	0.099
780.800	-4.146	0.099
780.900	7.845	0.099
781.000	-2.826	0.099
781.100	24.239	0.099
781.200	19.779	0.099
781.300	5.870	0.099
781.400	32.034	0.099
781.500	33.567	0.099
781.600	26.542	0.099
781.700	31.398	0.099
781.800	43.920	0.099
781.900	36.048	0.099
782.000	48.356	0.099
782.100	38.576	0.099
782.200	49.210	0.099
782.300	56.427	0.099
782.400	42.789	0.099
782.500	20.399	0.099
782.600	41.415	0.099
782.700	49.166	0.099
782.800	34.683	0.099
782.900	34.827	0.099
783.000	34.914	0.099
783.100	24.260	0.099
783.200	44.958	0.099
783.300	31.404	0.099
783.400	28.921	0.099
783.500	39.395	0.099
783.600	34.061	0.099
783.700	30.312	0.099
783.800	11.822	0.099
783.900	35.763	0.099
784.000	32.838	0.099
784.100	29.090	0.099
784.200	22.685	0.099
784.300	28.430	0.099
784.400	56.191	0.099
784.500	2.108	0.099
784.600	33.745	0.099
784.700	12.913	0.099
784.800	29.400	0.099
784.900	43.760	0.099
785.000	29.849	0.099
785.100	16.753	0.099
785.200	23.700	0.099
785.300	13.771	0.099
785.400	25.009	0.099
785.500	49.772	0.099
785.600	38.121	0.099
785.700	47.308	0.099
785.800	19.880	0.099
785.900	30.377	0.099
786.000	13.246	0.099
786.100	30.385	0.099
786.200	36.949	0.099
786.300	38.523	0.099
786.400	36.190	0.099
786.500	46.146	0.099
786.600	27.581	0.099
786.700	53.550	0.099
786.800	51.568	0.099
786.900	42.253	0.099
787.000	66.305	0.099
787.100	32.289	0.099
787.200	62.973	0.099
787.300	56.222	0.099
787.400	56.969	0.099
787.500	27.055	0.099
787.600	41.758	0.099
787.700	51.442	0.099
787.800	43.753	0.099
787.900	69.071	0.099
788.000	50.886	0.099
788.100	52.744	0.099
788.200	61.879	0.099
788.300	43.635	0.099
788.400	72.622	0.099
788.500	68.102	0.099
788.600	48.968	0.099
788.700	48.346	0.099
788.800	61.776	0.099
788.900	61.784	0.099
789.000	78.333	0.099
789.100	69.488	0.099
789.200	73.812	0.099
789.300	78.680	0.099
789.400	61.955	0.099
789.500	67.659	0.099
789.600	76.878	0.099
789.700	88.383	0.099
789.800	79.954	0.099
789.900	81.448	0.099
790.000	95.859	0.099
790.100	96.171	0.099
790.200	87.231	0.099
790.300	98.567	0.099
790.400	84.611	0.099
790.500	93.703	0.099
790.600	93.046	0.099
790.700	85.263	0.099
790.800	77.297	0.099
790.900	88.195	0.099
791.000	100.946	0.099
791.100	93.304	0.099
791.200	103.848	0.099
791.300	100.613	0.099
791.400	86.244	0.099
791.500	92.796	0.099
791.600	104.564	0.099
791.700	97.967	0.099
791.800	108.151	0.099
791.900	111.558	0.099
792.000	100.507	0.099
792.100	98.400	0.099
792.200	118.127	0.099
792.300	116.675	0.099
792.400	122.131	0.099
792.500	110.652	0.099
792.600	111.771	0.099
792.700	105.590	0.099
792.800	112.529	0.099
792.900	120.772	0.099
793.000	122.064	0.099
793.100	114.822	0.099
793.200	124.330	0.099
793.300	124.196	0.099
793.400	123.899	0.099
793.500	125.194	0.099
793.600	118.667	0.099
793.700	95.669	0.099
793.800	122.915	0.099
793.900	132.152	0.099
794.000	119.660	0.099
794.100	124.372	0.099
794.200	95.316	0.099
794.300	136.261	0.099
794.400	121.996	0.099
794.500	135.921	0.099
794.600	114.855	0.099
794.700	119.224	0.099
794.800	104.065	0.099
794.900	124.487	0.099
795.000	140.504	0.099
795.100	126.406	0.099
795.200	116.540	0.099
795.300	111.856	0.099
795.400	108.704	0.099
795.500	117.488	0.099
795.600	130.439	0.099
795.700	124.768	0.099
795.800	124.869	0.099
795.900	115.234	0.099
796.000	120.891	0.099
796.100	133.497	0.099
796.200	132.115	0.099
796.300	119.771	0.099
796.400	119.190	0.099
796.500	121.931	0.099
796.600	120.671	0.099
796.700	123.352	0.099
796.800	121.791	0.099
796.900	117.145	0.099
797.000	120.575	0.099
797.100	123.382	0.099
797.200	117.328	0.099
797.300	108.410	0.099
797.400	136.217	0.099
797.500	125.996	0.099
797.600	117.588	0.099
797.700	123.092	0.099
797.800	107.781	0.099
797.900	115.842	0.099
798.000	98.592	0.099
798.100	127.693	0.099
798.200	113.930	0.099
798.300	126.704	0.099
798.400	118.327	0.099
798.500	118.529	0.099
798.600	109.515	0.099
798.700	96.379	0.099
798.800	124.442	0.099
798.900	123.137	0.099
799.000	117.343	0.099
799.100	107.970	0.099
799.200	108.336	0.099
799.300	106.400	0.099
799.400	101.201	0.099
799.500	108.398	0.099
799.600	106.471	0.099
799.700	109.745	0.099
799.800	111.344	0.099
799.900	101.706	0.099
800.000	104.802	0.099
