time /s	I /nA	E /V
0.100	0.217	0.100
0.200	10.648	0.100
0.300	-16.371	0.100
0.400	-0.652	0.100
0.500	-18.384	0.100
0.600	-20.315	0.100
0.700	-13.322	0.100
0.800	-1.008	0.100
0.900	-17.746	0.100
1.000	-12.877	0.100
1.100	-20.192	0.100
1.200	2.349	0.100
1.300	-20.203	0.100
1.400	-13.914	0.100
1.500	-31.763	0.100
1.600	-8.008	0.100
1.700	-19.219	0.100
1.800	-17.676	0.100
1.900	-10.447	0.100
2.000	-19.919	0.100
2.100	-11.766	0.100
2.200	-7.340	0.100
2.300	-13.628	0.100
2.400	-14.687	0.100
2.500	-19.377	0.100
2.600	-14.450	0.100
2.700	-17.981	0.100
2.800	-5.461	0.100
2.900	-15.116	0.100
3.000	-25.436	0.100
3.100	-7.212	0.100
3.200	-20.051	0.100
3.300	-13.066	0.100
3.400	20.231	0.100
3.500	-13.451	0.100
3.600	-32.858	0.100
3.700	-16.631	0.100
3.800	-4.495	0.100
3.900	-8.321	0.100
4.000	-18.251	0.100
4.100	-20.180	0.100
4.200	-5.515	0.100
4.300	-19.196	0.100
4.400	-8.264	0.100
4.500	-31.999	0.100
4.600	-9.007	0.100
4.700	-9.307	0.100
4.800	-8.028	0.100
4.900	-21.425	0.100
5.000	-20.715	0.100
5.100	-1.011	0.100
5.200	-14.882	0.100
5.300	1.667	0.100
5.400	-14.520	0.100
5.500	-8.003	0.100
5.600	-19.941	0.100
5.700	-3.314	0.100
5.800	-10.634	0.100
5.900	-11.524	0.100
6.000	-15.587	0.100
6.100	23.851	0.100
6.200	-8.455	0.100
6.300	-29.707	0.100
6.400	-17.179	0.100
6.500	-21.405	0.100
6.600	-9.250	0.100
6.700	-7.830	0.100
6.800	-16.214	0.100
6.900	-21.372	0.100
7.000	-0.798	0.100
7.100	-8.764	0.100
7.200	-20.579	0.100
7.300	12.089	0.100
7.400	-36.385	0.100
7.500	-34.604	0.100
7.600	-9.118	0.100
7.700	-20.386	0.100
7.800	-9.075	0.100
7.900	-29.698	0.100
8.000	-24.958	0.100
8.100	-11.439	0.100
8.200	-21.160	0.100
8.300	-5.885	0.100
8.400	-9.724	0.100
8.500	-0.921	0.100
8.600	-6.737	0.100
8.700	-12.473	0.100
8.800	-13.129	0.100
8.900	-2.043	0.100
9.000	-1.927	0.100
9.100	-25.894	0.100
9.200	-16.121	0.100
9.300	-21.255	0.100
9.400	-17.887	0.100
9.500	-20.809	0.100
9.600	-15.637	0.100
9.700	-15.541	0.100
9.800	-16.673	0.100
9.900	-18.384	0.100
10.000	1.563	0.100
10.100	-19.816	0.100
10.200	-13.911	0.100
10.300	-9.894	0.100
10.400	-15.234	0.100
10.500	-11.065	0.100
10.600	-17.224	0.100
10.700	-25.695	0.100
10.800	-1.077	0.100
10.900	-16.085	0.100
11.000	-6.634	0.100
11.100	-10.070	0.100
11.200	-7.691	0.100
11.300	-24.247	0.100
11.400	10.752	0.100
11.500	3.365	0.100
11.600	-10.587	0.100
11.700	-20.860	0.100
11.800	-17.074	0.100
11.900	-6.011	0.100
12.000	-16.889	0.100
12.100	-10.158	0.100
12.200	-9.635	0.100
12.300	-40.549	0.100
12.400	5.727	0.100
12.500	-13.171	0.100
12.600	6.163	0.100
12.700	-1.915	0.100
12.800	-0.411	0.100
12.900	-7.247	0.100
13.000	-40.412	0.100
13.100	-6.929	0.100
13.200	-0.968	0.100
13.300	-16.387	0.100
13.400	-21.018	0.100
13.500	-22.095	0.100
13.600	-27.530	0.100
13.700	-0.400	0.100
13.800	-25.146	0.100
13.900	-11.586	0.100
14.000	0.253	0.100
14.100	-20.046	0.100
14.200	-14.415	0.100
14.300	-33.353	0.100
14.400	-17.812	0.100
14.500	-20.460	0.100
14.600	-1.697	0.100
14.700	-7.337	0.100
14.800	-22.316	0.100
14.900	-16.162	0.100
15.000	-17.140	0.100
15.100	-2.021	0.100
15.200	-4.280	0.100
15.300	-5.262	0.100
15.400	-27.114	0.100
15.500	-15.271	0.100
15.600	-6.547	0.100
15.700	-7.888	0.100
15.800	-10.642	0.100
15.900	-23.055	0.100
16.000	-7.918	0.100
16.100	-4.435	0.100
16.200	-13.119	0.100
16.300	1.307	0.100
16.400	-21.532	0.100
16.500	-24.190	0.100
16.600	-1.440	0.100
16.700	-0.469	0.100
16.800	-7.635	0.100
16.900	-0.822	0.100
17.000	-30.309	0.100
17.100	-14.362	0.100
17.200	-0.361	0.100
17.300	-8.295	0.100
17.400	16.118	0.100
17.500	-13.659	0.100
17.600	-8.288	0.100
17.700	-10.876	0.100
17.800	-29.118	0.100
17.900	-10.307	0.100
18.000	4.419	0.100
18.100	7.753	0.100
18.200	-11.893	0.100
18.300	-22.868	0.100
18.400	-27.535	0.100
18.500	-10.981	0.100
18.600	-3.095	0.100
18.700	-1.469	0.100
18.800	-19.724	0.100
18.900	-0.417	0.100
19.000	-9.511	0.100
19.100	-17.489	0.100
19.200	-25.579	0.100
19.300	-5.225	0.100
19.400	-15.965	0.100
19.500	-18.978	0.100
19.600	-24.401	0.100
19.700	2.214	0.100
19.800	-13.031	0.100
19.900	-9.646	0.100
20.000	-34.230	0.100
20.100	8.320	0.100
20.200	2.820	0.100
20.300	-26.606	0.100
20.400	-9.120	0.100
20.500	-16.042	0.100
20.600	-21.925	0.100
20.700	5.143	0.100
20.800	-14.430	0.100
20.900	-21.782	0.100
21.000	-15.117	0.100
21.100	-12.843	0.100
21.200	-6.701	0.100
21.300	-10.023	0.100
21.400	-10.067	0.100
21.500	3.586	0.100
21.600	-17.171	0.100
21.700	-8.278	0.100
21.800	-14.620	0.100
21.900	-15.315	0.100
22.000	-13.456	0.100
22.100	-2.526	0.100
22.200	-12.300	0.100
22.300	-14.513	0.100
22.400	-24.059	0.100
22.500	3.525	0.100
22.600	-16.172	0.100
22.700	-14.268	0.100
22.800	-3.520	0.100
22.900	7.001	0.100
23.000	-13.298	0.100
23.100	-2.628	0.100
23.200	-18.008	0.100
23.300	-9.205	0.100
23.400	-32.381	0.100
23.500	-6.354	0.100
23.600	-8.040	0.100
23.700	-8.195	0.100
23.800	-7.189	0.100
23.900	-7.880	0.100
24.000	-23.214	0.100
24.100	5.273	0.100
24.200	-26.992	0.100
24.300	-10.881	0.100
24.400	11.071	0.100
24.500	1.777	0.100
24.600	-21.167	0.100
24.700	-14.939	0.100
24.800	-6.766	0.100
24.900	-1.166	0.100
25.000	-5.005	0.100
25.100	-2.671	0.100
25.200	-11.811	0.100
25.300	-15.811	0.100
25.400	-14.202	0.100
25.500	-7.527	0.100
25.600	-9.251	0.100
25.700	-3.733	0.100
25.800	-24.868	0.100
25.900	-9.476	0.100
26.000	-6.839	0.100
26.100	-23.798	0.100
26.200	-11.826	0.100
26.300	-7.075	0.100
26.400	1.451	0.100
26.500	-12.568	0.100
26.600	-15.377	0.100
26.700	4.391	0.100
26.800	-14.252	0.100
26.900	-18.560	0.100
27.000	-7.541	0.100
27.100	-18.796	0.100
27.200	4.071	0.100
27.300	-5.345	0.100
27.400	-9.947	0.100
27.500	-15.877	0.100
27.600	-5.858	0.100
27.700	-6.594	0.100
27.800	-22.828	0.100
27.900	-20.290	0.100
28.000	-15.625	0.100
28.100	-11.417	0.100
28.200	-0.652	0.100
28.300	-17.004	0.100
28.400	-25.393	0.100
28.500	14.404	0.100
28.600	-6.727	0.100
28.700	-22.143	0.100
28.800	-1.682	0.100
28.900	-1.098	0.100
29.000	-25.679	0.100
29.100	-13.089	0.100
29.200	-6.459	0.100
29.300	-17.975	0.100
29.400	-13.938	0.100
29.500	1.837	0.100
29.600	-13.904	0.100
29.700	-7.756	0.100
29.800	-4.850	0.100
29.900	-3.714	0.100
30.000	-15.037	0.100
30.100	-19.734	0.100
30.200	-23.525	0.100
30.300	-11.028	0.100
30.400	-1.387	0.100
30.500	-6.791	0.100
30.600	1.955	0.100
30.700	-5.321	0.100
30.800	1.575	0.100
30.900	4.912	0.100
31.000	-9.074	0.100
31.100	20.568	0.100
31.200	3.958	0.100
31.300	11.186	0.100
31.400	-5.053	0.100
31.500	-6.709	0.100
31.600	20.819	0.100
31.700	-4.252	0.100
31.800	14.568	0.100
31.900	1.369	0.100
32.000	6.607	0.100
32.100	-13.131	0.100
32.200	10.687	0.100
32.300	2.090	0.100
32.400	13.246	0.100
32.500	11.890	0.100
32.600	-10.056	0.100
32.700	15.144	0.100
32.800	9.279	0.100
32.900	8.755	0.100
33.000	16.509	0.100
33.100	-5.715	0.100
33.200	37.101	0.100
33.300	17.880	0.100
33.400	21.699	0.100
33.500	-2.614	0.100
33.600	20.031	0.100
33.700	12.527	0.100
33.800	12.887	0.100
33.900	-0.642	0.100
34.000	10.529	0.100
34.100	19.103	0.100
34.200	-4.527	0.100
34.300	31.220	0.100
34.400	28.348	0.100
34.500	9.896	0.100
34.600	22.941	0.100
34.700	9.922	0.100
34.800	10.968	0.100
34.900	14.891	0.100
35.000	28.144	0.100
35.100	14.524	0.100
35.200	28.905	0.100
35.300	28.880	0.100
35.400	27.506	0.100
35.500	15.257	0.100
35.600	22.943	0.100
35.700	14.950	0.100
35.800	32.816	0.100
35.900	27.302	0.100
36.000	46.102	0.100
36.100	40.388	0.100
36.200	26.554	0.100
36.300	49.413	0.100
36.400	28.545	0.100
36.500	37.045	0.100
36.600	39.335	0.100
36.700	24.431	0.100
36.800	41.959	0.100
36.900	43.058	0.100
37.000	31.352	0.100
37.100	33.260	0.100
37.200	35.551	0.100
37.300	33.941	0.100
37.400	42.864	0.100
37.500	53.806	0.100
37.600	41.081	0.100
37.700	47.752	0.100
37.800	23.191	0.100
37.900	35.518	0.100
38.000	46.617	0.100
38.100	36.209	0.100
38.200	58.922	0.100
38.300	72.261	0.100
38.400	31.991	0.100
38.500	59.142	0.100
38.600	50.936	0.100
38.700	57.227	0.100
38.800	57.063	0.100
38.900	44.124	0.100
39.000	52.286	0.100
39.100	54.734	0.100
39.200	43.876	0.100
39.300	65.449	0.100
39.400	48.068	0.100
39.500	54.080	0.100
39.600	26.755	0.100
39.700	70.082	0.100
39.800	59.229	0.100
39.900	45.868	0.100
40.000	37.514	0.100
40.100	45.754	0.100
40.200	60.591	0.100
40.300	53.377	0.100
40.400	53.544	0.100
40.500	68.767	0.100
40.600	73.860	0.100
40.700	54.572	0.100
40.800	46.576	0.100
40.900	70.554	0.100
41.000	53.548	0.100
41.100	67.270	0.100
41.200	48.646	0.100
41.300	44.842	0.100
41.400	69.624	0.100
41.500	63.714	0.100
41.600	50.598	0.100
41.700	53.115	0.100
41.800	63.132	0.100
41.900	44.194	0.100
42.000	66.397	0.100
42.100	30.922	0.100
42.200	60.936	0.100
42.300	59.129	0.100
42.400	55.295	0.100
42.500	35.539	0.100
42.600	68.825	0.100
42.700	65.650	0.100
42.800	62.045	0.100
42.900	37.349	0.100
43.000	44.402	0.100
43.100	33.612	0.100
43.200	63.385	0.100
43.300	48.087	0.100
43.400	40.507	0.100
43.500	35.531	0.100
43.600	52.581	0.100
43.700	40.223	0.100
43.800	49.126	0.100
43.900	31.206	0.100
44.000	63.279	0.100
44.100	54.508	0.100
44.200	37.770	0.100
44.300	55.731	0.100
44.400	43.736	0.100
44.500	41.525	0.100
44.600	37.550	0.100
44.700	51.483	0.100
44.800	56.378	0.100
44.900	25.978	0.100
45.000	44.796	0.100
45.100	51.162	0.100
45.200	38.459	0.100
45.300	36.477	0.100
45.400	52.071	0.100
45.500	38.948	0.100
45.600	38.199	0.100
45.700	46.830	0.100
45.800	51.420	0.100
45.900	38.700	0.100
46.000	32.338	0.100
46.100	28.395	0.100
46.200	23.584	0.100
46.300	51.682	0.100
46.400	13.094	0.100
46.500	50.001	0.100
46.600	28.332	0.100
46.700	55.821	0.100
46.800	34.236	0.100
46.900	12.661	0.100
47.000	25.976	0.100
47.100	14.100	0.100
47.200	39.623	0.100
47.300	36.379	0.100
47.400	46.877	0.100
47.500	18.533	0.100
47.600	44.434	0.100
47.700	52.553	0.100
47.800	22.732	0.100
47.900	26.072	0.100
48.000	24.226	0.100
48.100	47.271	0.100
48.200	28.129	0.100
48.300	15.231	0.100
48.400	31.977	0.100
48.500	54.422	0.100
48.600	23.966	0.100
48.700	25.092	0.100
48.800	47.533	0.100
48.900	19.849	0.100
49.000	14.507	0.100
49.100	10.698	0.100
49.200	48.689	0.100
49.300	15.943	0.100
49.400	32.161	0.100
49.500	43.998	0.100
49.600	12.561	0.100
49.700	31.389	0.100
49.800	26.540	0.100
49.900	23.539	0.100
50.000	41.098	0.100
50.100	34.124	0.100
50.200	14.966	0.100
50.300	26.018	0.100
50.400	16.886	0.100
50.500	39.702	0.100
50.600	17.068	0.100
50.700	38.841	0.100
50.800	22.893	0.100
50.900	12.876	0.100
51.000	27.584	0.100
51.100	37.740	0.100
51.200	4.917	0.100
51.300	27.562	0.100
51.400	24.743	0.100
51.500	17.451	0.100
51.600	36.286	0.100
51.700	22.419	0.100
51.800	46.230	0.100
51.900	31.457	0.100
52.000	17.519	0.100
52.100	22.976	0.100
52.200	34.477	0.100
52.300	20.250	0.100
52.400	18.034	0.100
52.500	21.124	0.100
52.600	21.177	0.100
52.700	38.226	0.100
52.800	26.255	0.100
52.900	24.759	0.100
53.000	16.387	0.100
53.100	27.798	0.100
53.200	22.409	0.100
53.300	15.203	0.100
53.400	27.613	0.100
53.500	8.320	0.100
53.600	19.094	0.100
53.700	34.178	0.100
53.800	17.583	0.100
53.900	26.799	0.100
54.000	27.394	0.100
54.100	18.414	0.100
54.200	28.796	0.100
54.300	11.059	0.100
54.400	29.260	0.100
54.500	-2.648	0.100
54.600	19.072	0.100
54.700	38.706	0.100
54.800	12.074	0.100
54.900	13.616	0.100
55.000	18.638	0.100
55.100	18.251	0.100
55.200	37.395	0.100
55.300	20.562	0.100
55.400	7.912	0.100
55.500	20.298	0.100
55.600	43.472	0.100
55.700	25.774	0.100
55.800	13.601	0.100
55.900	14.854	0.100
56.000	25.230	0.100
56.100	19.103	0.100
56.200	13.970	0.100
56.300	26.360	0.100
56.400	3.844	0.100
56.500	29.387	0.100
56.600	19.320	0.100
56.700	12.340	0.100
56.800	35.284	0.100
56.900	30.960	0.100
57.000	31.907	0.100
57.100	34.482	0.100
57.200	14.701	0.100
57.300	24.171	0.100
57.400	13.718	0.100
57.500	15.699	0.100
57.600	22.607	0.100
57.700	10.220	0.100
57.800	21.710	0.100
57.900	30.451	0.100
58.000	16.839	0.100
58.100	16.957	0.100
58.200	31.733	0.100
58.300	23.724	0.100
58.400	20.654	0.100
58.500	34.442	0.100
58.600	11.636	0.100
58.700	-1.680	0.100
58.800	17.949	0.100
58.900	24.733	0.100
59.000	23.639	0.100
59.100	20.470	0.100
59.200	15.845	0.100
59.300	11.949	0.100
59.400	8.548	0.100
59.500	19.871	0.100
59.600	43.394	0.100
59.700	15.487	0.100
59.800	35.012	0.100
59.900	11.129	0.100
60.000	29.898	0.100
60.100	35.445	0.100
60.200	13.542	0.100
60.300	16.538	0.100
60.400	16.629	0.100
60.500	13.122	0.100
60.600	13.279	0.100
60.700	38.377	0.100
60.800	29.351	0.100
60.900	9.507	0.100
61.000	24.643	0.100
61.100	11.828	0.100
61.200	23.060	0.100
61.300	29.048	0.100
61.400	15.630	0.100
61.500	21.053	0.100
61.600	24.716	0.100
61.700	27.763	0.100
61.800	15.144	0.100
61.900	29.390	0.100
62.000	13.220	0.100
62.100	19.151	0.100
62.200	37.700	0.100
62.300	45.266	0.100
62.400	14.729	0.100
62.500	5.575	0.100
62.600	15.997	0.100
62.700	22.780	0.100
62.800	12.316	0.100
62.900	40.570	0.100
63.000	22.972	0.100
63.100	13.773	0.100
63.200	27.569	0.100
63.300	19.382	0.100
63.400	17.575	0.100
63.500	28.744	0.100
63.600	33.760	0.100
63.700	26.004	0.100
63.800	42.157	0.100
63.900	15.747	0.100
64.000	13.354	0.100
64.100	7.941	0.100
64.200	35.117	0.100
64.300	31.864	0.100
64.400	35.160	0.100
64.500	10.199	0.100
64.600	22.021	0.100
64.700	12.926	0.100
64.800	9.770	0.100
64.900	23.132	0.100
65.000	41.093	0.100
65.100	24.071	0.100
65.200	24.837	0.100
65.300	35.278	0.100
65.400	23.315	0.100
65.500	-1.625	0.100
65.600	7.899	0.100
65.700	29.672	0.100
65.800	52.291	0.100
65.900	29.715	0.100
66.000	23.035	0.100
66.100	2.995	0.100
66.200	40.301	0.100
66.300	32.568	0.100
66.400	24.973	0.100
66.500	10.753	0.100
66.600	20.866	0.100
66.700	14.373	0.100
66.800	29.532	0.100
66.900	43.034	0.100
67.000	20.012	0.100
67.100	28.410	0.100
67.200	36.532	0.100
67.300	23.957	0.100
67.400	28.925	0.100
67.500	38.086	0.100
67.600	36.066	0.100
67.700	19.796	0.100
67.800	3.433	0.100
67.900	43.157	0.100
68.000	27.338	0.100
68.100	28.442	0.100
68.200	30.134	0.100
68.300	38.698	0.100
68.400	24.257	0.100
68.500	28.598	0.100
68.600	39.199	0.100
68.700	33.098	0.100
68.800	13.398	0.100
68.900	36.682	0.100
69.000	20.466	0.100
69.100	23.600	0.100
69.200	19.902	0.100
69.300	18.842	0.100
69.400	30.905	0.100
69.500	25.059	0.100
69.600	10.490	0.100
69.700	43.600	0.100
69.800	32.712	0.100
69.900	24.785	0.100
70.000	42.939	0.100
70.100	24.710	0.100
70.200	10.732	0.100
70.300	22.334	0.100
70.400	16.383	0.100
70.500	26.152	0.100
70.600	45.118	0.100
70.700	23.987	0.100
70.800	31.391	0.100
70.900	12.348	0.100
71.000	21.870	0.100
71.100	13.064	0.100
71.200	21.086	0.100
71.300	20.120	0.100
71.400	19.596	0.100
71.500	28.511	0.100
71.600	0.716	0.100
71.700	14.444	0.100
71.800	30.972	0.100
71.900	11.771	0.100
72.000	27.016	0.100
72.100	36.836	0.100
72.200	-11.536	0.100
72.300	45.695	0.100
72.400	16.982	0.100
72.500	25.214	0.100
72.600	31.432	0.100
72.700	45.529	0.100
72.800	34.783	0.100
72.900	35.618	0.100
73.000	24.665	0.100
73.100	17.870	0.100
73.200	35.267	0.100
73.300	12.239	0.100
73.400	30.985	0.100
73.500	32.139	0.100
73.600	29.194	0.100
73.700	24.342	0.100
73.800	24.623	0.100
73.900	38.151	0.100
74.000	13.889	0.100
74.100	31.811	0.100
74.200	23.550	0.100
74.300	14.644	0.100
74.400	33.264	0.100
74.500	7.131	0.100
74.600	27.827	0.100
74.700	29.292	0.100
74.800	34.760	0.100
74.900	14.745	0.100
75.000	17.483	0.100
75.100	22.452	0.100
75.200	34.118	0.100
75.300	25.355	0.100
75.400	19.438	0.100
75.500	30.485	0.100
75.600	26.048	0.100
75.700	31.419	0.100
75.800	19.732	0.100
75.900	35.133	0.100
76.000	27.361	0.100
76.100	22.688	0.100
76.200	32.616	0.100
76.300	21.386	0.100
76.400	46.032	0.100
76.500	37.311	0.100
76.600	25.868	0.100
76.700	12.910	0.100
76.800	20.817	0.100
76.900	46.689	0.100
77.000	33.205	0.100
77.100	32.643	0.100
77.200	31.356	0.100
77.300	16.070	0.100
77.400	23.759	0.100
77.500	30.897	0.100
77.600	32.438	0.100
77.700	17.910	0.100
77.800	23.692	0.100
77.900	21.504	0.100
78.000	32.672	0.100
78.100	23.107	0.100
78.200	32.600	0.100
78.300	36.658	0.100
78.400	34.399	0.100
78.500	24.447	0.100
78.600	20.390	0.100
78.700	21.173	0.100
78.800	29.384	0.100
78.900	29.276	0.100
79.000	28.108	0.100
79.100	24.779	0.100
79.200	30.822	0.100
79.300	28.209	0.100
79.400	20.029	0.100
79.500	36.001	0.100
79.600	22.592	0.100
79.700	35.559	0.100
79.800	11.905	0.100
79.900	14.712	0.100
80.000	28.049	0.100
80.100	32.031	0.100
80.200	30.519	0.100
80.300	26.648	0.100
80.400	35.133	0.100
80.500	26.932	0.100
80.600	38.311	0.100
80.700	17.468	0.100
80.800	36.435	0.100
80.900	23.460	0.100
81.000	18.305	0.100
81.100	29.510	0.100
81.200	20.739	0.100
81.300	46.084	0.100
81.400	22.605	0.100
81.500	5.298	0.100
81.600	23.235	0.100
81.700	21.326	0.100
81.800	35.866	0.100
81.900	41.213	0.100
82.000	34.411	0.100
82.100	52.130	0.100
82.200	41.597	0.100
82.300	35.052	0.100
82.400	21.513	0.100
82.500	18.779	0.100
82.600	21.106	0.100
82.700	36.235	0.100
82.800	12.563	0.100
82.900	31.330	0.100
83.000	31.822	0.100
83.100	14.835	0.100
83.200	25.233	0.100
83.300	46.417	0.100
83.400	5.545	0.100
83.500	43.871	0.100
83.600	13.528	0.100
83.700	50.887	0.100
83.800	12.168	0.100
83.900	28.270	0.100
84.000	51.788	0.100
84.100	23.134	0.100
84.200	33.177	0.100
84.300	23.136	0.100
84.400	28.778	0.100
84.500	33.009	0.100
84.600	44.604	0.100
84.700	28.923	0.100
84.800	23.769	0.100
84.900	31.697	0.100
85.000	30.268	0.100
85.100	18.958	0.100
85.200	15.104	0.100
85.300	9.466	0.100
85.400	37.537	0.100
85.500	22.037	0.100
85.600	42.263	0.100
85.700	24.552	0.100
85.800	8.510	0.100
85.900	22.303	0.100
86.000	21.054	0.100
86.100	40.942	0.100
86.200	34.554	0.100
86.300	29.658	0.100
86.400	36.861	0.100
86.500	21.904	0.100
86.600	16.837	0.100
86.700	37.056	0.100
86.800	29.645	0.100
86.900	32.785	0.100
87.000	40.826	0.100
87.100	17.120	0.100
87.200	49.276	0.100
87.300	29.047	0.100
87.400	24.482	0.100
87.500	35.334	0.100
87.600	35.139	0.100
87.700	23.086	0.100
87.800	22.937	0.100
87.900	24.946	0.100
88.000	31.627	0.100
88.100	30.104	0.100
88.200	29.935	0.100
88.300	22.860	0.100
88.400	12.988	0.100
88.500	17.239	0.100
88.600	34.702	0.100
88.700	33.235	0.100
88.800	51.806	0.100
88.900	35.039	0.100
89.000	26.091	0.100
89.100	35.658	0.100
89.200	18.518	0.100
89.300	32.951	0.100
89.400	31.159	0.100
89.500	24.056	0.100
89.600	27.854	0.100
89.700	27.417	0.100
89.800	17.253	0.100
89.900	26.913	0.100
90.000	26.480	0.100
90.100	22.597	0.100
90.200	22.769	0.100
90.300	22.265	0.100
90.400	14.886	0.100
90.500	13.128	0.100
90.600	5.147	0.100
90.700	13.124	0.100
90.800	12.013	0.100
90.900	10.522	0.100
91.000	-4.058	0.100
91.100	4.106	0.100
91.200	10.520	0.100
91.300	10.757	0.100
91.400	-17.194	0.100
91.500	19.880	0.100
91.600	-6.333	0.100
91.700	9.113	0.100
91.800	-9.910	0.100
91.900	-6.967	0.100
92.000	4.613	0.100
92.100	-20.711	0.100
92.200	-10.660	0.100
92.300	-15.973	0.100
92.400	-13.726	0.100
92.500	5.852	0.100
92.600	-15.619	0.100
92.700	-10.058	0.100
92.800	-9.079	0.100
92.900	-25.035	0.100
93.000	-18.317	0.100
93.100	-2.730	0.100
93.200	-7.361	0.100
93.300	-27.658	0.100
93.400	-14.390	0.100
93.500	-1.441	0.100
93.600	-35.817	0.100
93.700	-16.033	0.100
93.800	-12.341	0.100
93.900	-23.359	0.100
94.000	-54.256	0.100
94.100	-15.456	0.100
94.200	-13.483	0.100
94.300	-47.527	0.100
94.400	-14.796	0.100
94.500	-24.749	0.100
94.600	-36.649	0.100
94.700	-31.729	0.100
94.800	-20.378	0.100
94.900	-13.810	0.100
95.000	-24.255	0.100
95.100	-29.946	0.100
95.200	-8.057	0.100
95.300	-8.583	0.100
95.400	-12.535	0.100
95.500	-30.058	0.100
95.600	-8.722	0.100
95.700	-41.619	0.100
95.800	-36.009	0.100
95.900	-1.394	0.100
96.000	-35.979	0.100
96.100	-33.635	0.100
96.200	-27.630	0.100
96.300	-12.561	0.100
96.400	-34.589	0.100
96.500	-31.534	0.100
96.600	-10.916	0.100
96.700	-28.290	0.100
96.800	-32.004	0.100
96.900	-27.267	0.100
97.000	-13.103	0.100
97.100	-27.993	0.100
97.200	-42.113	0.100
97.300	-17.391	0.100
97.400	-35.262	0.100
97.500	-18.362	0.100
97.600	-10.812	0.100
97.700	-24.427	0.100
97.800	-33.789	0.100
97.900	-45.449	0.100
98.000	-20.154	0.100
98.100	-33.650	0.100
98.200	-19.235	0.100
98.300	-19.213	0.100
98.400	-24.736	0.100
98.500	-10.542	0.100
98.600	-18.776	0.100
98.700	-22.448	0.100
98.800	-8.253	0.100
98.900	-27.896	0.100
99.000	-31.290	0.100
99.100	-10.950	0.100
99.200	-25.898	0.100
99.300	-17.612	0.100
99.400	-21.337	0.100
99.500	-22.294	0.100
99.600	-40.171	0.100
99.700	-16.119	0.100
99.800	-37.058	0.100
99.900	-22.956	0.100
100.000	-20.507	0.100
100.100	1.340	0.100
100.200	-21.275	0.100
100.300	-36.213	0.100
100.400	-13.230	0.100
100.500	-25.019	0.100
100.600	-34.736	0.100
100.700	-8.034	0.100
100.800	-24.307	0.100
100.900	-21.332	0.100
101.000	-22.041	0.100
101.100	-0.562	0.100
101.200	-22.204	0.100
101.300	-28.975	0.100
101.400	-11.114	0.100
101.500	-10.612	0.100
101.600	-24.840	0.100
101.700	-22.481	0.100
101.800	-25.804	0.100
101.900	-16.288	0.100
102.000	-39.638	0.100
102.100	-11.899	0.100
102.200	-25.329	0.100
102.300	-4.899	0.100
102.400	-21.197	0.100
102.500	-13.558	0.100
102.600	-15.746	0.100
102.700	-10.497	0.100
102.800	-37.464	0.100
102.900	-7.447	0.100
103.000	-11.369	0.100
103.100	-11.511	0.100
103.200	-36.227	0.100
103.300	-9.965	0.100
103.400	-36.432	0.100
103.500	-31.567	0.100
103.600	-20.388	0.100
103.700	-7.923	0.100
103.800	-14.101	0.100
103.900	-3.751	0.100
104.000	-18.734	0.100
104.100	-9.799	0.100
104.200	-21.962	0.100
104.300	-3.008	0.100
104.400	-16.809	0.100
104.500	-4.045	0.100
104.600	-16.037	0.100
104.700	-15.527	0.100
104.800	-38.089	0.100
104.900	-5.587	0.100
105.000	-2.048	0.100
105.100	-4.031	0.100
105.200	-18.636	0.100
105.300	-6.005	0.100
105.400	-4.913	0.100
105.500	-16.346	0.100
105.600	-3.285	0.100
105.700	-12.972	0.100
105.800	-21.374	0.100
105.900	1.949	0.100
106.000	-11.501	0.100
106.100	-22.537	0.100
106.200	-5.490	0.100
106.300	-13.511	0.100
106.400	-11.077	0.100
106.500	-22.410	0.100
106.600	-4.145	0.100
106.700	-11.488	0.100
106.800	-27.230	0.100
106.900	-13.180	0.100
107.000	-6.075	0.100
107.100	-10.057	0.100
107.200	-0.565	0.100
107.300	-10.067	0.100
107.400	-6.570	0.100
107.500	-10.240	0.100
107.600	-4.987	0.100
107.700	-4.455	0.100
107.800	-28.321	0.100
107.900	-20.383	0.100
108.000	-2.189	0.100
108.100	-6.940	0.100
108.200	-14.707	0.100
108.300	-9.096	0.100
108.400	-8.885	0.100
108.500	-25.352	0.100
108.600	-25.106	0.100
108.700	-11.215	0.100
108.800	-22.853	0.100
108.900	-14.803	0.100
109.000	-15.122	0.100
109.100	-16.849	0.100
109.200	1.942	0.100
109.300	2.044	0.100
109.400	-11.588	0.100
109.500	-9.562	0.100
109.600	1.361	0.100
109.700	-2.958	0.100
109.800	-35.357	0.100
109.900	4.998	0.100
110.000	-37.727	0.100
110.100	1.078	0.100
110.200	-11.255	0.100
110.300	-3.177	0.100
110.400	-5.915	0.100
110.500	-28.212	0.100
110.600	-2.662	0.100
110.700	-11.460	0.100
110.800	-5.936	0.100
110.900	-2.160	0.100
111.000	-7.045	0.100
111.100	-9.251	0.100
111.200	-21.763	0.100
111.300	-23.187	0.100
111.400	-6.327	0.100
111.500	9.353	0.100
111.600	-11.216	0.100
111.700	-32.659	0.100
111.800	-19.980	0.100
111.900	1.509	0.100
112.000	-10.446	0.100
112.100	-18.678	0.100
112.200	-22.001	0.100
112.300	0.999	0.100
112.400	-5.140	0.100
112.500	-8.619	0.100
112.600	-21.829	0.100
112.700	-17.317	0.100
112.800	2.698	0.100
112.900	-26.145	0.100
113.000	-13.953	0.100
113.100	-20.708	0.100
113.200	4.463	0.100
113.300	-11.352	0.100
113.400	-46.357	0.100
113.500	-6.944	0.100
113.600	7.404	0.100
113.700	-15.276	0.100
113.800	-21.437	0.100
113.900	-12.357	0.100
114.000	1.766	0.100
114.100	-2.184	0.100
114.200	-11.561	0.100
114.300	-1.137	0.100
114.400	-12.521	0.100
114.500	-14.118	0.100
114.600	-12.613	0.100
114.700	-15.754	0.100
114.800	-6.692	0.100
114.900	-21.986	0.100
115.000	-10.157	0.100
115.100	-4.269	0.100
115.200	-9.521	0.100
115.300	-12.099	0.100
115.400	-12.638	0.100
115.500	-18.068	0.100
115.600	-24.447	0.100
115.700	-38.868	0.100
115.800	4.360	0.100
115.900	-3.084	0.100
116.000	-32.072	0.100
116.100	-30.747	0.100
116.200	-2.312	0.100
116.300	-20.680	0.100
116.400	-7.271	0.100
116.500	-11.797	0.100
116.600	-24.927	0.100
116.700	-17.763	0.100
116.800	-14.562	0.100
116.900	-26.839	0.100
117.000	-6.591	0.100
117.100	-10.187	0.100
117.200	-26.389	0.100
117.300	-12.673	0.100
117.400	-20.258	0.100
117.500	-9.115	0.100
117.600	-4.294	0.100
117.700	-15.548	0.100
117.800	-21.554	0.100
117.900	-8.459	0.100
118.000	-25.120	0.100
118.100	-14.680	0.100
118.200	-5.666	0.100
118.300	-12.745	0.100
118.400	-19.145	0.100
118.500	-2.801	0.100
118.600	-32.054	0.100
118.700	-14.218	0.100
118.800	-7.754	0.100
118.900	1.637	0.100
119.000	-18.551	0.100
119.100	-17.663	0.100
119.200	-14.074	0.100
119.300	-18.835	0.100
119.400	-23.726	0.100
119.500	-8.179	0.100
119.600	-10.083	0.100
119.700	-30.229	0.100
119.800	-7.947	0.100
119.900	-2.639	0.100
120.000	-27.402	0.100
120.100	-15.304	0.100
120.200	-22.907	0.100
120.300	-11.906	0.100
120.400	-21.856	0.100
120.500	-4.514	0.100
120.600	-11.684	0.100
120.700	-14.736	0.100
120.800	0.120	0.100
120.900	-1.947	0.100
121.000	-6.098	0.100
121.100	-25.445	0.100
121.200	-22.882	0.100
121.300	0.085	0.100
121.400	-20.434	0.100
121.500	4.897	0.100
121.600	-24.204	0.100
121.700	-12.001	0.100
121.800	-6.710	0.100
121.900	-26.639	0.100
122.000	-1.736	0.100
122.100	-16.368	0.100
122.200	-10.974	0.100
122.300	-6.289	0.100
122.400	-13.205	0.100
122.500	-8.236	0.100
122.600	-19.122	0.100
122.700	-26.130	0.100
122.800	-19.123	0.100
122.900	-16.311	0.100
123.000	-2.305	0.100
123.100	5.974	0.100
123.200	-15.458	0.100
123.300	-19.284	0.100
123.400	-13.661	0.100
123.500	-19.476	0.100
123.600	-0.682	0.100
123.700	-19.576	0.100
123.800	-15.378	0.100
123.900	-11.516	0.100
124.000	-18.071	0.100
124.100	-8.047	0.100
124.200	-12.704	0.100
124.300	-17.382	0.100
124.400	-23.178	0.100
124.500	-9.844	0.100
124.600	-11.686	0.100
124.700	-6.450	0.100
124.800	-11.430	0.100
124.900	-6.357	0.100
125.000	-14.940	0.100
125.100	5.243	0.100
125.200	-20.124	0.100
125.300	-24.594	0.100
125.400	-16.665	0.100
125.500	9.590	0.100
125.600	-35.002	0.100
125.700	-1.847	0.100
125.800	-46.319	0.100
125.900	-1.786	0.100
126.000	-3.924	0.100
126.100	-6.672	0.100
126.200	-35.164	0.100
126.300	-36.861	0.100
126.400	-2.713	0.100
126.500	-0.451	0.100
126.600	-9.374	0.100
126.700	-3.777	0.100
126.800	-25.026	0.100
126.900	-26.430	0.100
127.000	-16.921	0.100
127.100	-14.587	0.100
127.200	-22.531	0.100
127.300	-11.740	0.100
127.400	-5.608	0.100
127.500	-31.866	0.100
127.600	-9.332	0.100
127.700	3.316	0.100
127.800	-23.663	0.100
127.900	-18.375	0.100
128.000	-34.099	0.100
128.100	2.596	0.100
128.200	4.163	0.100
128.300	-10.937	0.100
128.400	-18.888	0.100
128.500	-15.356	0.100
128.600	-12.525	0.100
128.700	-36.421	0.100
128.800	-27.979	0.100
128.900	-18.108	0.100
129.000	5.904	0.100
129.100	-24.225	0.100
129.200	-9.861	0.100
129.300	-17.233	0.100
129.400	-2.074	0.100
129.500	-14.260	0.100
129.600	-33.097	0.100
129.700	-11.525	0.100
129.800	-9.222	0.100
129.900	-14.301	0.100
130.000	-22.603	0.100
130.100	-8.733	0.100
130.200	1.314	0.100
130.300	-24.381	0.100
130.400	-21.112	0.100
130.500	-7.045	0.100
130.600	-3.155	0.100
130.700	-6.084	0.100
130.800	-31.678	0.100
130.900	-8.574	0.100
131.000	-13.970	0.100
131.100	-13.455	0.100
131.200	-3.758	0.100
131.300	-5.373	0.100
131.400	-17.325	0.100
131.500	-22.009	0.100
131.600	-32.654	0.100
131.700	-23.205	0.100
131.800	-0.222	0.100
131.900	-12.614	0.100
132.000	-18.658	0.100
132.100	-13.228	0.100
132.200	6.488	0.100
132.300	-23.078	0.100
132.400	-30.768	0.100
132.500	-10.625	0.100
132.600	-12.590	0.100
132.700	-20.225	0.100
132.800	-0.626	0.100
132.900	-13.409	0.100
133.000	-19.299	0.100
133.100	7.573	0.100
133.200	-19.398	0.100
133.300	-18.683	0.100
133.400	-22.433	0.100
133.500	-16.708	0.100
133.600	-23.343	0.100
133.700	-27.901	0.100
133.800	-18.238	0.100
133.900	-12.921	0.100
134.000	-16.189	0.100
134.100	5.356	0.100
134.200	-18.727	0.100
134.300	-23.157	0.100
134.400	4.905	0.100
134.500	-14.473	0.100
134.600	-22.668	0.100
134.700	-31.300	0.100
134.800	-12.785	0.100
134.900	-19.910	0.100
135.000	-12.359	0.100
135.100	-23.712	0.100
135.200	18.192	0.100
135.300	1.144	0.100
135.400	-13.626	0.100
135.500	-21.850	0.100
135.600	-25.738	0.100
135.700	1.045	0.100
135.800	-28.355	0.100
135.900	-21.027	0.100
136.000	-2.118	0.100
136.100	-11.540	0.100
136.200	-28.971	0.100
136.300	-23.443	0.100
136.400	-11.511	0.100
136.500	-28.340	0.100
136.600	-6.729	0.100
136.700	-25.942	0.100
136.800	-9.188	0.100
136.900	5.072	0.100
137.000	-33.704	0.100
137.100	-4.665	0.100
137.200	-17.713	0.100
137.300	-10.659	0.100
137.400	-16.459	0.100
137.500	-28.033	0.100
137.600	-18.365	0.100
137.700	-3.857	0.100
137.800	-9.307	0.100
137.900	-27.051	0.100
138.000	-23.384	0.100
138.100	-5.559	0.100
138.200	-22.417	0.100
138.300	-1.860	0.100
138.400	-20.295	0.100
138.500	-15.787	0.100
138.600	-15.060	0.100
138.700	-11.459	0.100
138.800	-20.235	0.100
138.900	-17.542	0.100
139.000	-16.836	0.100
139.100	-25.091	0.100
139.200	-9.508	0.100
139.300	-12.522	0.100
139.400	-12.107	0.100
139.500	-20.191	0.100
139.600	-25.925	0.100
139.700	-4.665	0.100
139.800	-13.001	0.100
139.900	-9.575	0.100
140.000	-23.475	0.100
140.100	-10.763	0.100
140.200	-17.592	0.100
140.300	-15.754	0.100
140.400	-41.859	0.100
140.500	-2.279	0.100
140.600	-19.169	0.100
140.700	-12.423	0.100
140.800	-12.632	0.100
140.900	-29.217	0.100
141.000	-13.243	0.100
141.100	-20.201	0.100
141.200	-14.928	0.100
141.300	-14.047	0.100
141.400	-20.784	0.100
141.500	-28.991	0.100
141.600	4.435	0.100
141.700	-5.254	0.100
141.800	1.688	0.100
141.900	-10.699	0.100
142.000	-35.618	0.100
142.100	-19.189	0.100
142.200	-29.968	0.100
142.300	-5.074	0.100
142.400	-26.018	0.100
142.500	-17.466	0.100
142.600	-6.151	0.100
142.700	-3.838	0.100
142.800	-7.313	0.100
142.900	-22.708	0.100
143.000	-34.163	0.100
143.100	-25.117	0.100
143.200	-7.494	0.100
143.300	-3.679	0.100
143.400	-18.479	0.100
143.500	-21.241	0.100
143.600	-14.821	0.100
143.700	-31.373	0.100
143.800	-7.018	0.100
143.900	-15.773	0.100
144.000	-19.110	0.100
144.100	-7.298	0.100
144.200	-18.961	0.100
144.300	-37.211	0.100
144.400	-16.272	0.100
144.500	-25.898	0.100
144.600	-20.772	0.100
144.700	-14.319	0.100
144.800	-18.843	0.100
144.900	-11.964	0.100
145.000	-25.520	0.100
145.100	-2.263	0.100
145.200	-42.641	0.100
145.300	1.800	0.100
145.400	-0.846	0.100
145.500	-24.295	0.100
145.600	-18.983	0.100
145.700	-30.481	0.100
145.800	-8.168	0.100
145.900	4.527	0.100
146.000	-36.973	0.100
146.100	-4.719	0.100
146.200	-6.150	0.100
146.300	-20.309	0.100
146.400	-0.936	0.100
146.500	-14.926	0.100
146.600	-33.801	0.100
146.700	-9.427	0.100
146.800	-24.333	0.100
146.900	-10.737	0.100
147.000	-8.837	0.100
147.100	-8.704	0.100
147.200	-15.387	0.100
147.300	-23.300	0.100
147.400	-7.183	0.100
147.500	-13.080	0.100
147.600	-18.419	0.100
147.700	10.426	0.100
147.800	-38.098	0.100
147.900	-6.029	0.100
148.000	-13.338	0.100
148.100	-13.151	0.100
148.200	-25.022	0.100
148.300	-17.888	0.100
148.400	-20.710	0.100
148.500	-20.977	0.100
148.600	-12.056	0.100
148.700	8.125	0.100
148.800	-16.910	0.100
148.900	-7.129	0.100
149.000	-21.690	0.100
149.100	-8.115	0.100
149.200	-19.041	0.100
149.300	-20.179	0.100
149.400	-24.771	0.100
149.500	-14.343	0.100
149.600	-25.474	0.100
149.700	-13.190	0.100
149.800	-30.975	0.100
149.900	-22.511	0.100
150.000	-10.551	0.100
150.100	-12.546	0.100
150.200	-10.649	0.100
150.300	-9.586	0.100
150.400	-13.197	0.100
150.500	-23.213	0.100
150.600	-21.915	0.100
150.700	-21.528	0.100
150.800	-19.783	0.100
150.900	-3.047	0.100
151.000	-16.385	0.100
151.100	-9.446	0.100
151.200	-11.116	0.100
151.300	-12.185	0.100
151.400	-4.638	0.100
151.500	-33.507	0.100
151.600	-3.449	0.100
151.700	-15.240	0.100
151.800	-41.505	0.100
151.900	-10.302	0.100
152.000	-15.985	0.100
152.100	-38.117	0.100
152.200	0.432	0.100
152.300	-13.301	0.100
152.400	-7.291	0.100
152.500	-7.179	0.100
152.600	-21.778	0.100
152.700	-14.813	0.100
152.800	-3.871	0.100
152.900	-20.089	0.100
153.000	-6.953	0.100
153.100	1.029	0.100
153.200	-3.025	0.100
153.300	-18.914	0.100
153.400	-4.424	0.100
153.500	-21.937	0.100
153.600	-31.443	0.100
153.700	0.250	0.100
153.800	-42.188	0.100
153.900	-14.803	0.100
154.000	-11.083	0.100
154.100	-17.881	0.100
154.200	-26.749	0.100
154.300	-21.961	0.100
154.400	-21.277	0.100
154.500	5.475	0.100
154.600	2.581	0.100
154.700	-27.315	0.100
154.800	-3.821	0.100
154.900	-10.264	0.100
155.000	-10.820	0.100
155.100	-9.368	0.100
155.200	-21.020	0.100
155.300	-13.119	0.100
155.400	-23.657	0.100
155.500	-22.420	0.100
155.600	-17.933	0.100
155.700	-3.495	0.100
155.800	-6.986	0.100
155.900	-21.927	0.100
156.000	-18.614	0.100
156.100	-9.612	0.100
156.200	-32.840	0.100
156.300	-25.650	0.100
156.400	-9.505	0.100
156.500	-16.181	0.100
156.600	-7.597	0.100
156.700	-35.989	0.100
156.800	-17.240	0.100
156.900	-19.001	0.100
157.000	-22.590	0.100
157.100	-0.447	0.100
157.200	-17.546	0.100
157.300	1.707	0.100
157.400	-5.432	0.100
157.500	-20.373	0.100
157.600	-31.878	0.100
157.700	-17.175	0.100
157.800	-33.641	0.100
157.900	0.973	0.100
158.000	-12.994	0.100
158.100	-28.410	0.100
158.200	-24.285	0.100
158.300	-22.746	0.100
158.400	-2.470	0.100
158.500	-39.591	0.100
158.600	-9.817	0.100
158.700	-31.002	0.100
158.800	-22.785	0.100
158.900	-8.232	0.100
159.000	-22.314	0.100
159.100	-17.267	0.100
159.200	-16.965	0.100
159.300	-8.672	0.100
159.400	-13.445	0.100
159.500	-20.733	0.100
159.600	-22.961	0.100
159.700	-20.999	0.100
159.800	-14.308	0.100
159.900	-19.397	0.100
160.000	1.495	0.100
160.100	-20.440	0.100
160.200	3.575	0.100
160.300	-19.514	0.100
160.400	-39.390	0.100
160.500	-7.886	0.100
160.600	-32.646	0.100
160.700	-9.928	0.100
160.800	-8.277	0.100
160.900	-13.436	0.100
161.000	-13.014	0.100
161.100	-18.838	0.100
161.200	4.688	0.100
161.300	-22.371	0.100
161.400	-10.669	0.100
161.500	-28.968	0.100
161.600	-28.028	0.100
161.700	-6.105	0.100
161.800	-17.657	0.100
161.900	-18.278	0.100
162.000	-14.872	0.100
162.100	-3.762	0.100
162.200	-10.544	0.100
162.300	-15.153	0.100
162.400	-12.611	0.100
162.500	-35.455	0.100
162.600	-6.038	0.100
162.700	-4.294	0.100
162.800	-7.884	0.100
162.900	-17.994	0.100
163.000	-17.316	0.100
163.100	-23.656	0.100
163.200	-30.742	0.100
163.300	-1.321	0.100
163.400	-33.702	0.100
163.500	-27.027	0.100
163.600	-9.015	0.100
163.700	-20.893	0.100
163.800	-11.754	0.100
163.900	-13.196	0.100
164.000	-27.515	0.100
164.100	-4.668	0.100
164.200	-7.698	0.100
164.300	-12.553	0.100
164.400	-32.161	0.100
164.500	-23.610	0.100
164.600	-20.573	0.100
164.700	-6.424	0.100
164.800	-16.318	0.100
164.900	-9.670	0.100
165.000	-14.840	0.100
165.100	-38.938	0.100
165.200	-29.189	0.100
165.300	-13.401	0.100
165.400	-4.925	0.100
165.500	-13.974	0.100
165.600	-8.880	0.100
165.700	-16.820	0.100
165.800	-24.784	0.100
165.900	-11.394	0.100
166.000	-6.654	0.100
166.100	-15.907	0.100
166.200	3.760	0.100
166.300	-22.747	0.100
166.400	-14.972	0.100
166.500	-11.209	0.100
166.600	-20.591	0.100
166.700	-3.677	0.100
166.800	-46.410	0.100
166.900	-1.221	0.100
167.000	-7.205	0.100
167.100	-13.830	0.100
167.200	-6.281	0.100
167.300	-25.192	0.100
167.400	2.314	0.100
167.500	-6.080	0.100
167.600	-33.547	0.100
167.700	-8.523	0.100
167.800	-21.984	0.100
167.900	-19.904	0.100
168.000	-15.831	0.100
168.100	-7.560	0.100
168.200	-28.734	0.100
168.300	-0.901	0.100
168.400	-13.954	0.100
168.500	-2.717	0.100
168.600	-21.086	0.100
168.700	-43.559	0.100
168.800	-39.336	0.100
168.900	-6.850	0.100
169.000	-5.373	0.100
169.100	-23.554	0.100
169.200	-25.124	0.100
169.300	-15.011	0.100
169.400	-9.774	0.100
169.500	-16.388	0.100
169.600	-10.409	0.100
169.700	-15.146	0.100
169.800	-39.525	0.100
169.900	-12.458	0.100
170.000	-7.259	0.100
170.100	-12.676	0.100
170.200	-18.074	0.100
170.300	-18.352	0.100
170.400	-32.543	0.100
170.500	-4.174	0.100
170.600	-2.213	0.100
170.700	-22.959	0.100
170.800	-3.578	0.100
170.900	-25.669	0.100
171.000	2.688	0.100
171.100	-3.543	0.100
171.200	-31.810	0.100
171.300	-27.905	0.100
171.400	-25.830	0.100
171.500	6.887	0.100
171.600	-14.517	0.100
171.700	-23.757	0.100
171.800	-15.826	0.100
171.900	-15.508	0.100
172.000	-19.126	0.100
172.100	-19.314	0.100
172.200	-29.925	0.100
172.300	-14.205	0.100
172.400	-23.470	0.100
172.500	-4.230	0.100
172.600	-9.024	0.100
172.700	-9.740	0.100
172.800	-19.039	0.100
172.900	-6.790	0.100
173.000	-30.148	0.100
173.100	-26.522	0.100
173.200	-10.366	0.100
173.300	-15.838	0.100
173.400	-7.587	0.100
173.500	-2.263	0.100
173.600	-14.913	0.100
173.700	-9.914	0.100
173.800	-26.735	0.100
173.900	-12.497	0.100
174.000	1.942	0.100
174.100	-21.683	0.100
174.200	-26.007	0.100
174.300	-21.637	0.100
174.400	-8.932	0.100
174.500	2.313	0.100
174.600	-31.056	0.100
174.700	-15.027	0.100
174.800	-17.251	0.100
174.900	-13.489	0.100
175.000	-15.663	0.100
175.100	-19.237	0.100
175.200	-7.102	0.100
175.300	-47.282	0.100
175.400	-20.700	0.100
175.500	-25.083	0.100
175.600	-15.142	0.100
175.700	-4.996	0.100
175.800	-12.038	0.100
175.900	-16.744	0.100
176.000	-14.654	0.100
176.100	-31.250	0.100
176.200	-12.972	0.100
176.300	-20.817	0.100
176.400	-8.414	0.100
176.500	16.970	0.100
176.600	-10.594	0.100
176.700	-8.043	0.100
176.800	4.383	0.100
176.900	-21.413	0.100
177.000	-6.045	0.100
177.100	-5.186	0.100
177.200	-26.884	0.100
177.300	-8.065	0.100
177.400	-7.512	0.100
177.500	-26.852	0.100
177.600	-27.766	0.100
177.700	-11.226	0.100
177.800	-15.846	0.100
177.900	-14.797	0.100
178.000	-12.274	0.100
178.100	5.220	0.100
178.200	-10.069	0.100
178.300	-8.857	0.100
178.400	-14.099	0.100
178.500	-12.846	0.100
178.600	-37.591	0.100
178.700	-0.464	0.100
178.800	-16.628	0.100
178.900	-13.789	0.100
179.000	-3.684	0.100
179.100	18.633	0.100
179.200	-15.193	0.100
179.300	-17.551	0.100
179.400	-16.899	0.100
179.500	-8.018	0.100
179.600	-18.609	0.100
179.700	-16.641	0.100
179.800	-18.439	0.100
179.900	-15.150	0.100
180.000	-5.242	0.100
180.100	-14.383	0.100
180.200	-9.862	0.100
180.300	-5.353	0.100
180.400	-7.975	0.100
180.500	-10.889	0.100
180.600	-9.453	0.100
180.700	-3.784	0.100
180.800	-1.420	0.100
180.900	0.588	0.100
181.000	12.559	0.100
181.100	0.019	0.100
181.200	27.231	0.100
181.300	5.534	0.100
181.400	30.844	0.100
181.500	-8.334	0.100
181.600	0.213	0.100
181.700	25.130	0.100
181.800	8.053	0.100
181.900	23.585	0.100
182.000	12.882	0.100
182.100	14.300	0.100
182.200	17.940	0.100
182.300	21.992	0.100
182.400	17.840	0.100
182.500	-6.029	0.100
182.600	21.914	0.100
182.700	14.955	0.100
182.800	3.556	0.100
182.900	-10.116	0.100
183.000	1.913	0.100
183.100	14.639	0.100
183.200	14.200	0.100
183.300	-3.483	0.100
183.400	24.242	0.100
183.500	17.492	0.100
183.600	2.904	0.100
183.700	14.278	0.100
183.800	3.525	0.100
183.900	1.847	0.100
184.000	9.740	0.100
184.100	6.824	0.100
184.200	26.707	0.100
184.300	-1.854	0.100
184.400	14.472	0.100
184.500	21.029	0.100
184.600	2.007	0.100
184.700	1.499	0.100
184.800	20.438	0.100
184.900	13.158	0.100
185.000	7.571	0.100
185.100	11.569	0.100
185.200	2.543	0.100
185.300	10.138	0.100
185.400	2.044	0.100
185.500	14.619	0.100
185.600	7.592	0.100
185.700	0.708	0.100
185.800	-0.519	0.100
185.900	15.487	0.100
186.000	12.271	0.100
186.100	-26.180	0.100
186.200	21.649	0.100
186.300	9.643	0.100
186.400	9.255	0.100
186.500	9.974	0.100
186.600	27.083	0.100
186.700	1.053	0.100
186.800	1.926	0.100
186.900	2.218	0.100
187.000	32.233	0.100
187.100	0.548	0.100
187.200	5.877	0.100
187.300	24.076	0.100
187.400	-4.237	0.100
187.500	11.939	0.100
187.600	31.458	0.100
187.700	12.459	0.100
187.800	13.471	0.100
187.900	2.839	0.100
188.000	5.684	0.100
188.100	30.816	0.100
188.200	-0.590	0.100
188.300	20.240	0.100
188.400	20.492	0.100
188.500	-7.891	0.100
188.600	27.993	0.100
188.700	21.309	0.100
188.800	14.364	0.100
188.900	30.515	0.100
189.000	-4.695	0.100
189.100	11.361	0.100
189.200	9.583	0.100
189.300	16.922	0.100
189.400	4.545	0.100
189.500	18.428	0.100
189.600	11.812	0.100
189.700	10.681	0.100
189.800	2.561	0.100
189.900	21.253	0.100
190.000	4.546	0.100
190.100	6.608	0.100
190.200	39.533	0.100
190.300	20.149	0.100
190.400	10.860	0.100
190.500	23.436	0.100
190.600	24.409	0.100
190.700	6.816	0.100
190.800	19.840	0.100
190.900	20.112	0.100
191.000	8.822	0.100
191.100	17.935	0.100
191.200	22.945	0.100
191.300	16.671	0.100
191.400	-6.401	0.100
191.500	35.487	0.100
191.600	22.171	0.100
191.700	24.033	0.100
191.800	26.785	0.100
191.900	10.240	0.100
192.000	19.237	0.100
192.100	27.790	0.100
192.200	23.259	0.100
192.300	36.345	0.100
192.400	23.011	0.100
192.500	32.686	0.100
192.600	23.492	0.100
192.700	26.360	0.100
192.800	34.927	0.100
192.900	10.515	0.100
193.000	32.074	0.100
193.100	28.266	0.100
193.200	17.967	0.100
193.300	24.783	0.100
193.400	26.649	0.100
193.500	21.899	0.100
193.600	30.582	0.100
193.700	26.540	0.100
193.800	25.406	0.100
193.900	31.276	0.100
194.000	22.943	0.100
194.100	21.627	0.100
194.200	38.414	0.100
194.300	32.426	0.100
194.400	34.974	0.100
194.500	34.166	0.100
194.600	23.178	0.100
194.700	33.640	0.100
194.800	30.448	0.100
194.900	36.430	0.100
195.000	40.548	0.100
195.100	36.319	0.100
195.200	29.508	0.100
195.300	46.111	0.100
195.400	18.810	0.100
195.500	47.970	0.100
195.600	32.914	0.100
195.700	38.465	0.100
195.800	37.992	0.100
195.900	31.854	0.100
196.000	38.434	0.100
196.100	27.344	0.100
196.200	21.461	0.100
196.300	47.489	0.100
196.400	35.899	0.100
196.500	54.571	0.100
196.600	49.199	0.100
196.700	44.224	0.100
196.800	29.642	0.100
196.900	39.818	0.100
197.000	21.121	0.100
197.100	56.457	0.100
197.200	31.502	0.100
197.300	30.677	0.100
197.400	21.675	0.100
197.500	28.172	0.100
197.600	38.108	0.100
197.700	54.143	0.100
197.800	29.382	0.100
197.900	41.645	0.100
198.000	40.035	0.100
198.100	20.157	0.100
198.200	44.274	0.100
198.300	46.722	0.100
198.400	42.603	0.100
198.500	41.587	0.100
198.600	60.115	0.100
198.700	31.543	0.100
198.800	43.994	0.100
198.900	44.761	0.100
199.000	43.025	0.100
199.100	39.876	0.100
199.200	52.389	0.100
199.300	21.464	0.100
199.400	48.522	0.100
199.500	26.682	0.100
199.600	37.912	0.100
199.700	53.090	0.100
199.800	49.486	0.100
199.900	45.919	0.100
200.000	36.834	0.100
200.100	49.906	0.100
200.200	55.632	0.100
200.300	35.099	0.100
200.400	48.054	0.100
200.500	44.056	0.100
200.600	40.091	0.100
200.700	27.792	0.100
200.800	69.897	0.100
200.900	42.693	0.100
201.000	54.771	0.100
201.100	44.902	0.100
201.200	45.510	0.100
201.300	31.626	0.100
201.400	50.336	0.100
201.500	25.816	0.100
201.600	43.348	0.100
201.700	46.649	0.100
201.800	56.365	0.100
201.900	42.042	0.100
202.000	59.995	0.100
202.100	46.953	0.100
202.200	35.042	0.100
202.300	39.499	0.100
202.400	61.716	0.100
202.500	39.354	0.100
202.600	37.180	0.100
202.700	26.327	0.100
202.800	42.417	0.100
202.900	49.997	0.100
203.000	43.581	0.100
203.100	42.744	0.100
203.200	52.147	0.100
203.300	45.212	0.100
203.400	36.250	0.100
203.500	23.627	0.100
203.600	46.555	0.100
203.700	36.426	0.100
203.800	38.963	0.100
203.900	31.441	0.100
204.000	58.037	0.100
204.100	73.004	0.100
204.200	33.054	0.100
204.300	45.094	0.100
204.400	35.044	0.100
204.500	54.838	0.100
204.600	53.655	0.100
204.700	55.304	0.100
204.800	31.612	0.100
204.900	56.341	0.100
205.000	33.842	0.100
205.100	45.421	0.100
205.200	54.637	0.100
205.300	45.364	0.100
205.400	59.460	0.100
205.500	43.642	0.100
205.600	48.604	0.100
205.700	34.114	0.100
205.800	54.145	0.100
205.900	38.496	0.100
206.000	40.143	0.100
206.100	28.410	0.100
206.200	34.966	0.100
206.300	40.099	0.100
206.400	39.176	0.100
206.500	37.218	0.100
206.600	40.925	0.100
206.700	46.323	0.100
206.800	54.374	0.100
206.900	34.817	0.100
207.000	36.592	0.100
207.100	42.745	0.100
207.200	60.688	0.100
207.300	48.063	0.100
207.400	47.321	0.100
207.500	45.367	0.100
207.600	69.600	0.100
207.700	42.644	0.100
207.800	52.020	0.100
207.900	21.890	0.100
208.000	37.060	0.100
208.100	40.730	0.100
208.200	50.348	0.100
208.300	29.095	0.100
208.400	42.444	0.100
208.500	46.384	0.100
208.600	50.375	0.100
208.700	29.252	0.100
208.800	44.600	0.100
208.900	48.044	0.100
209.000	39.993	0.100
209.100	57.149	0.100
209.200	30.787	0.100
209.300	51.292	0.100
209.400	54.281	0.100
209.500	42.832	0.100
209.600	45.411	0.100
209.700	35.389	0.100
209.800	41.974	0.100
209.900	28.897	0.100
210.000	46.902	0.100
210.100	34.231	0.100
210.200	47.522	0.100
210.300	40.082	0.100
210.400	52.076	0.100
210.500	36.828	0.100
210.600	66.327	0.100
210.700	33.909	0.100
210.800	41.988	0.100
210.900	43.262	0.100
211.000	39.932	0.100
211.100	37.512	0.100
211.200	52.594	0.100
211.300	36.955	0.100
211.400	46.272	0.100
211.500	71.037	0.100
211.600	42.514	0.100
211.700	39.140	0.100
211.800	45.041	0.100
211.900	19.128	0.100
212.000	46.427	0.100
212.100	58.186	0.100
212.200	30.949	0.100
212.300	39.752	0.100
212.400	42.246	0.100
212.500	70.479	0.100
212.600	51.612	0.100
212.700	39.564	0.100
212.800	38.860	0.100
212.900	54.287	0.100
213.000	37.349	0.100
213.100	51.124	0.100
213.200	46.549	0.100
213.300	35.408	0.100
213.400	42.608	0.100
213.500	43.580	0.100
213.600	41.141	0.100
213.700	35.746	0.100
213.800	57.767	0.100
213.900	46.657	0.100
214.000	31.792	0.100
214.100	45.405	0.100
214.200	48.650	0.100
214.300	32.383	0.100
214.400	51.138	0.100
214.500	41.030	0.100
214.600	42.595	0.100
214.700	38.897	0.100
214.800	44.349	0.100
214.900	47.694	0.100
215.000	40.771	0.100
215.100	41.493	0.100
215.200	49.265	0.100
215.300	48.285	0.100
215.400	21.555	0.100
215.500	42.267	0.100
215.600	42.225	0.100
215.700	33.638	0.100
215.800	31.073	0.100
215.900	50.420	0.100
216.000	54.838	0.100
216.100	16.274	0.100
216.200	39.080	0.100
216.300	41.424	0.100
216.400	43.527	0.100
216.500	29.571	0.100
216.600	62.233	0.100
216.700	44.657	0.100
216.800	61.048	0.100
216.900	30.678	0.100
217.000	48.828	0.100
217.100	45.031	0.100
217.200	45.373	0.100
217.300	22.433	0.100
217.400	65.440	0.100
217.500	45.907	0.100
217.600	24.643	0.100
217.700	37.385	0.100
217.800	48.721	0.100
217.900	21.476	0.100
218.000	62.435	0.100
218.100	47.706	0.100
218.200	39.108	0.100
218.300	57.788	0.100
218.400	43.148	0.100
218.500	40.143	0.100
218.600	34.260	0.100
218.700	25.261	0.100
218.800	43.311	0.100
218.900	49.831	0.100
219.000	31.416	0.100
219.100	50.734	0.100
219.200	45.862	0.100
219.300	40.228	0.100
219.400	33.570	0.100
219.500	39.895	0.100
219.600	36.151	0.100
219.700	44.786	0.100
219.800	25.408	0.100
219.900	43.938	0.100
220.000	49.652	0.100
220.100	29.099	0.100
220.200	27.700	0.100
220.300	64.878	0.100
220.400	37.544	0.100
220.500	46.342	0.100
220.600	50.176	0.100
220.700	52.232	0.100
220.800	29.083	0.100
220.900	49.480	0.100
221.000	35.438	0.100
221.100	50.803	0.100
221.200	45.701	0.100
221.300	36.171	0.100
221.400	30.127	0.100
221.500	33.079	0.100
221.600	44.187	0.100
221.700	33.716	0.100
221.800	45.052	0.100
221.900	61.961	0.100
222.000	28.160	0.100
222.100	39.421	0.100
222.200	40.745	0.100
222.300	55.964	0.100
222.400	46.807	0.100
222.500	32.981	0.100
222.600	50.173	0.100
222.700	49.659	0.100
222.800	29.355	0.100
222.900	14.585	0.100
223.000	58.699	0.100
223.100	57.581	0.100
223.200	34.724	0.100
223.300	36.336	0.100
223.400	36.258	0.100
223.500	41.930	0.100
223.600	22.996	0.100
223.700	45.091	0.100
223.800	36.645	0.100
223.900	40.353	0.100
224.000	44.947	0.100
224.100	38.513	0.100
224.200	35.167	0.100
224.300	49.199	0.100
224.400	52.141	0.100
224.500	41.397	0.100
224.600	46.398	0.100
224.700	23.567	0.100
224.800	48.332	0.100
224.900	43.193	0.100
225.000	51.770	0.100
225.100	54.570	0.100
225.200	26.850	0.100
225.300	26.561	0.100
225.400	32.953	0.100
225.500	26.982	0.100
225.600	45.532	0.100
225.700	52.978	0.100
225.800	36.399	0.100
225.900	42.272	0.100
226.000	45.890	0.100
226.100	37.152	0.100
226.200	42.360	0.100
226.300	50.307	0.100
226.400	29.148	0.100
226.500	41.786	0.100
226.600	29.709	0.100
226.700	53.808	0.100
226.800	18.193	0.100
226.900	41.704	0.100
227.000	45.874	0.100
227.100	42.173	0.100
227.200	43.936	0.100
227.300	37.680	0.100
227.400	40.494	0.100
227.500	34.991	0.100
227.600	32.707	0.100
227.700	41.324	0.100
227.800	50.349	0.100
227.900	44.048	0.100
228.000	51.628	0.100
228.100	22.473	0.100
228.200	53.821	0.100
228.300	68.264	0.100
228.400	46.607	0.100
228.500	36.103	0.100
228.600	38.698	0.100
228.700	40.722	0.100
228.800	48.773	0.100
228.900	35.007	0.100
229.000	28.495	0.100
229.100	46.919	0.100
229.200	44.621	0.100
229.300	26.892	0.100
229.400	51.983	0.100
229.500	28.969	0.100
229.600	40.432	0.100
229.700	38.229	0.100
229.800	36.520	0.100
229.900	51.692	0.100
230.000	40.326	0.100
230.100	37.000	0.100
230.200	34.553	0.100
230.300	60.050	0.100
230.400	25.048	0.100
230.500	44.683	0.100
230.600	48.103	0.100
230.700	42.346	0.100
230.800	43.182	0.100
230.900	36.786	0.100
231.000	37.935	0.100
231.100	30.048	0.100
231.200	62.345	0.100
231.300	46.548	0.100
231.400	31.181	0.100
231.500	28.879	0.100
231.600	34.202	0.100
231.700	65.062	0.100
231.800	44.492	0.100
231.900	44.011	0.100
232.000	41.383	0.100
232.100	44.654	0.100
232.200	49.381	0.100
232.300	34.012	0.100
232.400	38.216	0.100
232.500	36.255	0.100
232.600	32.097	0.100
232.700	42.295	0.100
232.800	38.109	0.100
232.900	22.125	0.100
233.000	43.526	0.100
233.100	49.537	0.100
233.200	33.379	0.100
233.300	18.167	0.100
233.400	42.488	0.100
233.500	24.469	0.100
233.600	44.559	0.100
233.700	58.030	0.100
233.800	36.333	0.100
233.900	23.303	0.100
234.000	42.098	0.100
234.100	64.942	0.100
234.200	35.063	0.100
234.300	38.868	0.100
234.400	31.108	0.100
234.500	37.610	0.100
234.600	21.595	0.100
234.700	59.627	0.100
234.800	25.598	0.100
234.900	53.364	0.100
235.000	39.574	0.100
235.100	39.540	0.100
235.200	43.851	0.100
235.300	35.424	0.100
235.400	45.035	0.100
235.500	59.555	0.100
235.600	38.086	0.100
235.700	37.215	0.100
235.800	21.275	0.100
235.900	42.743	0.100
236.000	31.406	0.100
236.100	38.913	0.100
236.200	31.202	0.100
236.300	71.947	0.100
236.400	32.131	0.100
236.500	13.285	0.100
236.600	32.754	0.100
236.700	46.605	0.100
236.800	42.614	0.100
236.900	53.188	0.100
237.000	37.199	0.100
237.100	37.363	0.100
237.200	39.833	0.100
237.300	52.858	0.100
237.400	18.222	0.100
237.500	35.968	0.100
237.600	68.969	0.100
237.700	34.475	0.100
237.800	42.966	0.100
237.900	26.393	0.100
238.000	31.986	0.100
238.100	38.783	0.100
238.200	40.266	0.100
238.300	43.072	0.100
238.400	39.845	0.100
238.500	32.232	0.100
238.600	46.495	0.100
238.700	37.625	0.100
238.800	20.468	0.100
238.900	41.539	0.100
239.000	35.862	0.100
239.100	55.897	0.100
239.200	34.431	0.100
239.300	42.620	0.100
239.400	32.998	0.100
239.500	41.503	0.100
239.600	43.772	0.100
239.700	39.310	0.100
239.800	41.394	0.100
239.900	29.335	0.100
240.000	31.959	0.100
240.100	36.939	0.100
240.200	18.797	0.100
240.300	35.796	0.100
240.400	11.608	0.100
240.500	18.563	0.100
240.600	15.384	0.100
240.700	31.663	0.100
240.800	47.766	0.100
240.900	30.072	0.100
241.000	10.674	0.100
241.100	3.352	0.100
241.200	32.383	0.100
241.300	18.614	0.100
241.400	22.641	0.100
241.500	13.878	0.100
241.600	14.911	0.100
241.700	-5.065	0.100
241.800	30.612	0.100
241.900	14.676	0.100
242.000	13.662	0.100
242.100	-0.143	0.100
242.200	5.037	0.100
242.300	16.460	0.100
242.400	-10.845	0.100
242.500	-13.845	0.100
242.600	1.477	0.100
242.700	10.063	0.100
242.800	16.396	0.100
242.900	0.225	0.100
243.000	0.444	0.100
243.100	-15.841	0.100
243.200	-14.748	0.100
243.300	-3.759	0.100
243.400	2.957	0.100
243.500	4.505	0.100
243.600	9.573	0.100
243.700	5.889	0.100
243.800	-0.714	0.100
243.900	10.853	0.100
244.000	-19.699	0.100
244.100	24.833	0.100
244.200	-4.544	0.100
244.300	-0.488	0.100
244.400	6.437	0.100
244.500	4.042	0.100
244.600	-11.627	0.100
244.700	-24.540	0.100
244.800	3.832	0.100
244.900	10.611	0.100
245.000	-8.893	0.100
245.100	-6.041	0.100
245.200	-6.729	0.100
245.300	-8.616	0.100
245.400	2.846	0.100
245.500	7.455	0.100
245.600	-22.789	0.100
245.700	2.169	0.100
245.800	-2.844	0.100
245.900	-28.158	0.100
246.000	22.933	0.100
246.100	-4.031	0.100
246.200	2.131	0.100
246.300	-18.200	0.100
246.400	-12.205	0.100
246.500	-1.012	0.100
246.600	14.867	0.100
246.700	13.149	0.100
246.800	-7.952	0.100
246.900	-0.372	0.100
247.000	-2.704	0.100
247.100	-15.163	0.100
247.200	-2.592	0.100
247.300	-10.387	0.100
247.400	-15.604	0.100
247.500	11.495	0.100
247.600	4.407	0.100
247.700	-2.362	0.100
247.800	-1.526	0.100
247.900	3.068	0.100
248.000	1.543	0.100
248.100	14.682	0.100
248.200	-10.105	0.100
248.300	-14.544	0.100
248.400	-1.112	0.100
248.500	15.372	0.100
248.600	-24.442	0.100
248.700	-1.688	0.100
248.800	5.705	0.100
248.900	-1.924	0.100
249.000	-15.525	0.100
249.100	1.521	0.100
249.200	-8.828	0.100
249.300	16.462	0.100
249.400	9.203	0.100
249.500	6.662	0.100
249.600	-21.806	0.100
249.700	5.141	0.100
249.800	-2.125	0.100
249.900	-5.238	0.100
250.000	-3.435	0.100
250.100	-1.416	0.100
250.200	-1.656	0.100
250.300	7.603	0.100
250.400	-4.630	0.100
250.500	1.824	0.100
250.600	-11.448	0.100
250.700	-14.208	0.100
250.800	-5.243	0.100
250.900	-20.787	0.100
251.000	18.019	0.100
251.100	2.914	0.100
251.200	-9.885	0.100
251.300	-2.967	0.100
251.400	1.680	0.100
251.500	-16.197	0.100
251.600	-11.879	0.100
251.700	-3.002	0.100
251.800	-1.916	0.100
251.900	-19.097	0.100
252.000	-12.193	0.100
252.100	6.670	0.100
252.200	-22.123	0.100
252.300	3.581	0.100
252.400	0.713	0.100
252.500	-0.617	0.100
252.600	-9.063	0.100
252.700	0.165	0.100
252.800	3.428	0.100
252.900	-14.041	0.100
253.000	-1.061	0.100
253.100	-8.697	0.100
253.200	-24.626	0.100
253.300	5.340	0.100
253.400	-18.752	0.100
253.500	-15.086	0.100
253.600	-0.534	0.100
253.700	-3.975	0.100
253.800	-10.320	0.100
253.900	-17.733	0.100
254.000	1.763	0.100
254.100	9.346	0.100
254.200	3.282	0.100
254.300	1.309	0.100
254.400	13.871	0.100
254.500	-17.056	0.100
254.600	-7.386	0.100
254.700	-10.039	0.100
254.800	-10.979	0.100
254.900	-13.843	0.100
255.000	2.290	0.100
255.100	-10.646	0.100
255.200	-26.523	0.100
255.300	-4.153	0.100
255.400	-14.414	0.100
255.500	-12.141	0.100
255.600	-16.371	0.100
255.700	-13.442	0.100
255.800	-15.733	0.100
255.900	-9.454	0.100
256.000	-11.881	0.100
256.100	-3.791	0.100
256.200	-12.111	0.100
256.300	-14.857	0.100
256.400	-13.204	0.100
256.500	-13.986	0.100
256.600	-16.468	0.100
256.700	1.486	0.100
256.800	-12.800	0.100
256.900	-32.538	0.100
257.000	-9.433	0.100
257.100	-1.632	0.100
257.200	-5.549	0.100
257.300	2.854	0.100
257.400	-2.511	0.100
257.500	-9.574	0.100
257.600	4.396	0.100
257.700	-11.702	0.100
257.800	-29.013	0.100
257.900	-5.931	0.100
258.000	-3.437	0.100
258.100	-16.676	0.100
258.200	-11.566	0.100
258.300	-10.308	0.100
258.400	17.092	0.100
258.500	-7.067	0.100
258.600	-2.964	0.100
258.700	-20.088	0.100
258.800	-8.729	0.100
258.900	-11.898	0.100
259.000	-28.497	0.100
259.100	-15.151	0.100
259.200	-9.399	0.100
259.300	1.053	0.100
259.400	-11.667	0.100
259.500	-15.163	0.100
259.600	-18.585	0.100
259.700	-19.132	0.100
259.800	-30.468	0.100
259.900	10.033	0.100
260.000	-23.755	0.100
260.100	-6.851	0.100
260.200	-30.791	0.100
260.300	-6.288	0.100
260.400	-11.834	0.100
260.500	-6.241	0.100
260.600	-10.448	0.100
260.700	-15.223	0.100
260.800	-6.835	0.100
260.900	-23.740	0.100
261.000	-9.051	0.100
261.100	-28.672	0.100
261.200	-13.404	0.100
261.300	-13.637	0.100
261.400	6.150	0.100
261.500	-17.604	0.100
261.600	-8.079	0.100
261.700	-32.400	0.100
261.800	-4.327	0.100
261.900	-21.230	0.100
262.000	2.517	0.100
262.100	-9.573	0.100
262.200	-22.738	0.100
262.300	-21.596	0.100
262.400	4.226	0.100
262.500	-11.273	0.100
262.600	-9.076	0.100
262.700	-5.065	0.100
262.800	-20.790	0.100
262.900	2.704	0.100
263.000	-21.394	0.100
263.100	-25.058	0.100
263.200	-5.892	0.100
263.300	-13.318	0.100
263.400	-13.532	0.100
263.500	-15.481	0.100
263.600	-3.163	0.100
263.700	-27.559	0.100
263.800	-26.646	0.100
263.900	-24.803	0.100
264.000	-4.357	0.100
264.100	-12.112	0.100
264.200	-23.664	0.100
264.300	-19.409	0.100
264.400	-33.336	0.100
264.500	-15.417	0.100
264.600	5.940	0.100
264.700	-13.145	0.100
264.800	-14.414	0.100
264.900	-4.025	0.100
265.000	-1.638	0.100
265.100	-37.689	0.100
265.200	-9.529	0.100
265.300	-3.262	0.100
265.400	-20.569	0.100
265.500	-18.253	0.100
265.600	-18.400	0.100
265.700	2.542	0.100
265.800	-9.416	0.100
265.900	-5.519	0.100
266.000	3.365	0.100
266.100	-39.884	0.100
266.200	-13.443	0.100
266.300	-17.718	0.100
266.400	-32.993	0.100
266.500	-20.478	0.100
266.600	-14.157	0.100
266.700	-17.535	0.100
266.800	-19.151	0.100
266.900	-31.395	0.100
267.000	-29.926	0.100
267.100	-1.104	0.100
267.200	-14.029	0.100
267.300	-20.727	0.100
267.400	-31.812	0.100
267.500	-6.116	0.100
267.600	-26.475	0.100
267.700	-6.961	0.100
267.800	-0.005	0.100
267.900	-32.555	0.100
268.000	-15.322	0.100
268.100	6.358	0.100
268.200	-10.772	0.100
268.300	-28.488	0.100
268.400	-38.275	0.100
268.500	6.491	0.100
268.600	-14.576	0.100
268.700	-41.242	0.100
268.800	-3.786	0.100
268.900	-4.008	0.100
269.000	-30.827	0.100
269.100	4.229	0.100
269.200	-16.917	0.100
269.300	-21.397	0.100
269.400	-19.019	0.100
269.500	-17.582	0.100
269.600	-2.197	0.100
269.700	-13.109	0.100
269.800	-40.591	0.100
269.900	-18.566	0.100
270.000	-18.992	0.100
270.100	-14.911	0.100
270.200	-2.403	0.100
270.300	-23.787	0.100
270.400	-12.309	0.100
270.500	-18.724	0.100
270.600	-26.020	0.100
270.700	-18.155	0.100
270.800	-7.031	0.100
270.900	-18.146	0.100
271.000	-19.979	0.100
271.100	-27.464	0.100
271.200	-19.808	0.100
271.300	-14.437	0.100
271.400	-6.533	0.100
271.500	-8.096	0.100
271.600	-27.756	0.100
271.700	-21.874	0.100
271.800	-25.541	0.100
271.900	-7.144	0.100
272.000	-24.953	0.100
272.100	-4.149	0.100
272.200	0.859	0.100
272.300	-35.561	0.100
272.400	-3.761	0.100
272.500	-10.916	0.100
272.600	0.318	0.100
272.700	-54.821	0.100
272.800	-13.374	0.100
272.900	-8.228	0.100
273.000	-22.317	0.100
273.100	-8.159	0.100
273.200	-4.772	0.100
273.300	-19.837	0.100
273.400	-7.643	0.100
273.500	-20.716	0.100
273.600	-5.308	0.100
273.700	-31.383	0.100
273.800	-3.729	0.100
273.900	-10.129	0.100
274.000	-28.939	0.100
274.100	-13.071	0.100
274.200	-7.375	0.100
274.300	-27.865	0.100
274.400	-9.055	0.100
274.500	-1.094	0.100
274.600	-14.698	0.100
274.700	-14.204	0.100
274.800	-23.745	0.100
274.900	-13.624	0.100
275.000	-16.849	0.100
275.100	-7.329	0.100
275.200	-27.565	0.100
275.300	-13.813	0.100
275.400	-19.982	0.100
275.500	-27.439	0.100
275.600	-13.653	0.100
275.700	-11.749	0.100
275.800	-20.217	0.100
275.900	-9.655	0.100
276.000	-18.027	0.100
276.100	-16.609	0.100
276.200	-33.446	0.100
276.300	-16.054	0.100
276.400	-12.951	0.100
276.500	8.687	0.100
276.600	6.709	0.100
276.700	-37.795	0.100
276.800	-0.338	0.100
276.900	-19.405	0.100
277.000	-31.420	0.100
277.100	-15.371	0.100
277.200	-11.344	0.100
277.300	-16.402	0.100
277.400	1.277	0.100
277.500	-14.395	0.100
277.600	-4.636	0.100
277.700	-8.232	0.100
277.800	-22.403	0.100
277.900	-15.067	0.100
278.000	-14.085	0.100
278.100	-11.734	0.100
278.200	-17.679	0.100
278.300	-8.602	0.100
278.400	-21.234	0.100
278.500	-17.482	0.100
278.600	-8.831	0.100
278.700	-22.942	0.100
278.800	-14.536	0.100
278.900	-15.358	0.100
279.000	-11.091	0.100
279.100	-15.471	0.100
279.200	-4.491	0.100
279.300	-20.510	0.100
279.400	-11.179	0.100
279.500	-27.292	0.100
279.600	-16.962	0.100
279.700	-35.049	0.100
279.800	-12.167	0.100
279.900	-0.146	0.100
280.000	-36.034	0.100
280.100	-10.364	0.100
280.200	-17.215	0.100
280.300	-22.377	0.100
280.400	-19.491	0.100
280.500	-9.458	0.100
280.600	-21.558	0.100
280.700	-25.645	0.100
280.800	-24.497	0.100
280.900	-7.552	0.100
281.000	-2.485	0.100
281.100	-23.397	0.100
281.200	-11.929	0.100
281.300	-26.239	0.100
281.400	-6.728	0.100
281.500	-32.168	0.100
281.600	-33.388	0.100
281.700	-17.149	0.100
281.800	-20.247	0.100
281.900	-13.976	0.100
282.000	-13.555	0.100
282.100	-13.487	0.100
282.200	-17.404	0.100
282.300	-19.560	0.100
282.400	-5.045	0.100
282.500	-20.459	0.100
282.600	-14.490	0.100
282.700	-13.201	0.100
282.800	-6.171	0.100
282.900	-26.409	0.100
283.000	-10.395	0.100
283.100	-17.382	0.100
283.200	-16.449	0.100
283.300	-8.707	0.100
283.400	-35.686	0.100
283.500	-20.689	0.100
283.600	11.063	0.100
283.700	-14.471	0.100
283.800	-32.195	0.100
283.900	-39.528	0.100
284.000	-2.143	0.100
284.100	-13.505	0.100
284.200	-15.446	0.100
284.300	-22.303	0.100
284.400	-16.681	0.100
284.500	-20.003	0.100
284.600	-7.179	0.100
284.700	-19.400	0.100
284.800	-15.935	0.100
284.900	-18.079	0.100
285.000	-28.072	0.100
285.100	-19.618	0.100
285.200	-33.359	0.100
285.300	-30.949	0.100
285.400	-4.070	0.100
285.500	-24.201	0.100
285.600	-9.645	0.100
285.700	-18.580	0.100
285.800	-15.063	0.100
285.900	-25.934	0.100
286.000	-24.463	0.100
286.100	-19.959	0.100
286.200	-16.194	0.100
286.300	-30.281	0.100
286.400	4.798	0.100
286.500	-34.185	0.100
286.600	-8.068	0.100
286.700	-0.013	0.100
286.800	-11.403	0.100
286.900	-23.251	0.100
287.000	-19.748	0.100
287.100	-8.916	0.100
287.200	-12.338	0.100
287.300	-28.963	0.100
287.400	-15.554	0.100
287.500	-6.426	0.100
287.600	-14.075	0.100
287.700	-16.828	0.100
287.800	1.930	0.100
287.900	-18.758	0.100
288.000	-44.229	0.100
288.100	1.271	0.100
288.200	-7.313	0.100
288.300	-13.871	0.100
288.400	-28.663	0.100
288.500	-1.761	0.100
288.600	-8.773	0.100
288.700	-18.430	0.100
288.800	-12.301	0.100
288.900	-19.490	0.100
289.000	-31.360	0.100
289.100	-4.941	0.100
289.200	-43.813	0.100
289.300	-10.853	0.100
289.400	-12.412	0.100
289.500	-17.909	0.100
289.600	-1.934	0.100
289.700	-17.655	0.100
289.800	-19.431	0.100
289.900	-13.376	0.100
290.000	-31.625	0.100
290.100	-22.943	0.100
290.200	-9.895	0.100
290.300	-21.262	0.100
290.400	-27.235	0.100
290.500	-15.796	0.100
290.600	-12.523	0.100
290.700	-17.574	0.100
290.800	-4.472	0.100
290.900	-11.524	0.100
291.000	-29.375	0.100
291.100	-34.345	0.100
291.200	-19.115	0.100
291.300	-14.455	0.100
291.400	-14.686	0.100
291.500	-17.455	0.100
291.600	-23.073	0.100
291.700	-12.434	0.100
291.800	-48.032	0.100
291.900	-6.771	0.100
292.000	-23.696	0.100
292.100	7.022	0.100
292.200	-18.326	0.100
292.300	-26.270	0.100
292.400	-3.452	0.100
292.500	-22.238	0.100
292.600	-27.344	0.100
292.700	1.817	0.100
292.800	-26.994	0.100
292.900	-28.176	0.100
293.000	-32.481	0.100
293.100	-4.999	0.100
293.200	-22.703	0.100
293.300	-26.381	0.100
293.400	-23.529	0.100
293.500	-22.679	0.100
293.600	-25.979	0.100
293.700	-22.988	0.100
293.800	-24.183	0.100
293.900	10.278	0.100
294.000	-20.561	0.100
294.100	-17.581	0.100
294.200	-16.559	0.100
294.300	-29.202	0.100
294.400	-20.087	0.100
294.500	-32.424	0.100
294.600	-16.161	0.100
294.700	-19.646	0.100
294.800	-25.238	0.100
294.900	-23.898	0.100
295.000	-12.456	0.100
295.100	-9.088	0.100
295.200	-7.633	0.100
295.300	-23.646	0.100
295.400	-23.171	0.100
295.500	-20.139	0.100
295.600	-2.311	0.100
295.700	-25.816	0.100
295.800	-30.189	0.100
295.900	-19.734	0.100
296.000	-10.241	0.100
296.100	2.069	0.100
296.200	-21.566	0.100
296.300	-14.436	0.100
296.400	-27.161	0.100
296.500	-17.671	0.100
296.600	-6.823	0.100
296.700	-18.804	0.100
296.800	-20.353	0.100
296.900	-33.730	0.100
297.000	-27.302	0.100
297.100	-19.779	0.100
297.200	-3.087	0.100
297.300	-26.118	0.100
297.400	-16.715	0.100
297.500	-35.035	0.100
297.600	-19.982	0.100
297.700	-20.838	0.100
297.800	-16.704	0.100
297.900	-3.611	0.100
298.000	-20.901	0.100
298.100	-3.795	0.100
298.200	-33.161	0.100
298.300	-17.030	0.100
298.400	-26.013	0.100
298.500	-11.159	0.100
298.600	-30.113	0.100
298.700	-24.272	0.100
298.800	-10.481	0.100
298.900	-35.976	0.100
299.000	-9.417	0.100
299.100	-13.514	0.100
299.200	-26.818	0.100
299.300	-15.263	0.100
299.400	-24.942	0.100
299.500	-15.457	0.100
299.600	-17.567	0.100
299.700	-21.877	0.100
299.800	-4.478	0.100
299.900	-16.345	0.100
300.000	-26.835	0.100
300.100	-6.648	0.100
300.200	-6.258	0.100
300.300	-32.404	0.100
300.400	-24.797	0.100
300.500	-18.021	0.100
300.600	-26.069	0.100
300.700	15.206	0.100
300.800	-41.537	0.100
300.900	-16.646	0.100
301.000	-37.535	0.100
301.100	-31.695	0.100
301.200	-13.170	0.100
301.300	-28.027	0.100
301.400	-3.953	0.100
301.500	-37.477	0.100
301.600	-32.397	0.100
301.700	-31.407	0.100
301.800	12.812	0.100
301.900	-6.551	0.100
302.000	-38.080	0.100
302.100	-20.127	0.100
302.200	-11.774	0.100
302.300	-34.293	0.100
302.400	-23.799	0.100
302.500	-6.131	0.100
302.600	-31.911	0.100
302.700	-2.046	0.100
302.800	-4.259	0.100
302.900	-21.723	0.100
303.000	-7.779	0.100
303.100	-24.320	0.100
303.200	-11.451	0.100
303.300	-10.507	0.100
303.400	-6.380	0.100
303.500	-7.845	0.100
303.600	-19.705	0.100
303.700	-8.283	0.100
303.800	-22.759	0.100
303.900	-18.659	0.100
304.000	-23.818	0.100
304.100	-12.065	0.100
304.200	-10.629	0.100
304.300	-21.779	0.100
304.400	-10.016	0.100
304.500	-18.938	0.100
304.600	-13.166	0.100
304.700	2.811	0.100
304.800	-19.744	0.100
304.900	-27.635	0.100
305.000	-20.437	0.100
305.100	-19.926	0.100
305.200	-20.340	0.100
305.300	-20.243	0.100
305.400	-17.234	0.100
305.500	-15.723	0.100
305.600	-6.637	0.100
305.700	-31.296	0.100
305.800	-13.012	0.100
305.900	-23.498	0.100
306.000	-0.543	0.100
306.100	-11.377	0.100
306.200	-26.093	0.100
306.300	-15.109	0.100
306.400	-4.128	0.100
306.500	-22.024	0.100
306.600	-25.888	0.100
306.700	-5.558	0.100
306.800	-34.999	0.100
306.900	-27.218	0.100
307.000	-7.543	0.100
307.100	-29.077	0.100
307.200	-15.858	0.100
307.300	-20.647	0.100
307.400	-21.457	0.100
307.500	-16.784	0.100
307.600	2.356	0.100
307.700	-32.957	0.100
307.800	-35.162	0.100
307.900	-1.435	0.100
308.000	-19.474	0.100
308.100	-14.561	0.100
308.200	-15.105	0.100
308.300	-30.188	0.100
308.400	-23.757	0.100
308.500	-2.657	0.100
308.600	-32.105	0.100
308.700	-10.981	0.100
308.800	-26.687	0.100
308.900	-19.912	0.100
309.000	-25.880	0.100
309.100	-13.786	0.100
309.200	-14.866	0.100
309.300	-21.882	0.100
309.400	-2.997	0.100
309.500	-32.972	0.100
309.600	-6.896	0.100
309.700	-18.136	0.100
309.800	6.027	0.100
309.900	-28.844	0.100
310.000	-15.008	0.100
310.100	-22.760	0.100
310.200	-0.356	0.100
310.300	-20.892	0.100
310.400	-7.703	0.100
310.500	-9.041	0.100
310.600	-16.157	0.100
310.700	-22.646	0.100
310.800	-6.925	0.100
310.900	-11.448	0.100
311.000	-20.514	0.100
311.100	-23.003	0.100
311.200	-27.775	0.100
311.300	-11.980	0.100
311.400	0.407	0.100
311.500	-19.544	0.100
311.600	-31.409	0.100
311.700	-12.208	0.100
311.800	-13.679	0.100
311.900	-37.990	0.100
312.000	-17.062	0.100
312.100	-5.447	0.100
312.200	-25.994	0.100
312.300	-7.103	0.100
312.400	-19.308	0.100
312.500	-12.462	0.100
312.600	-19.536	0.100
312.700	-23.740	0.100
312.800	-23.384	0.100
312.900	-13.518	0.100
313.000	-9.785	0.100
313.100	-1.053	0.100
313.200	-17.046	0.100
313.300	-22.932	0.100
313.400	-26.095	0.100
313.500	-12.370	0.100
313.600	2.997	0.100
313.700	-8.688	0.100
313.800	-34.280	0.100
313.900	-13.854	0.100
314.000	-15.931	0.100
314.100	-15.653	0.100
314.200	-34.788	0.100
314.300	-23.914	0.100
314.400	4.720	0.100
314.500	-20.114	0.100
314.600	-3.265	0.100
314.700	-19.375	0.100
314.800	-4.152	0.100
314.900	-25.438	0.100
315.000	-9.678	0.100
315.100	-8.964	0.100
315.200	-29.700	0.100
315.300	-20.923	0.100
315.400	-28.950	0.100
315.500	-19.082	0.100
315.600	-15.854	0.100
315.700	-9.185	0.100
315.800	-8.513	0.100
315.900	-23.444	0.100
316.000	-35.933	0.100
316.100	-14.512	0.100
316.200	-15.428	0.100
316.300	-24.345	0.100
316.400	-6.343	0.100
316.500	-37.410	0.100
316.600	-16.498	0.100
316.700	-14.269	0.100
316.800	-16.438	0.100
316.900	-22.851	0.100
317.000	-27.218	0.100
317.100	-8.793	0.100
317.200	-43.441	0.100
317.300	-20.105	0.100
317.400	-26.364	0.100
317.500	-27.496	0.100
317.600	-16.830	0.100
317.700	-13.363	0.100
317.800	-8.798	0.100
317.900	-4.094	0.100
318.000	-1.599	0.100
318.100	-45.408	0.100
318.200	-23.779	0.100
318.300	-22.392	0.100
318.400	-0.446	0.100
318.500	-18.942	0.100
318.600	-8.699	0.100
318.700	-10.600	0.100
318.800	-10.164	0.100
318.900	-16.444	0.100
319.000	-26.448	0.100
319.100	-6.985	0.100
319.200	-13.512	0.100
319.300	-28.288	0.100
319.400	-12.595	0.100
319.500	-1.555	0.100
319.600	-22.143	0.100
319.700	-30.204	0.100
319.800	-26.516	0.100
319.900	-18.820	0.100
320.000	-25.553	0.100
320.100	-5.796	0.100
320.200	-18.824	0.100
320.300	-23.995	0.100
320.400	-19.237	0.100
320.500	-14.142	0.100
320.600	-18.362	0.100
320.700	-30.911	0.100
320.800	-26.588	0.100
320.900	-17.517	0.100
321.000	11.885	0.100
321.100	-29.336	0.100
321.200	-13.375	0.100
321.300	-25.952	0.100
321.400	2.511	0.100
321.500	-20.320	0.100
321.600	-21.880	0.100
321.700	-21.111	0.100
321.800	-9.587	0.100
321.900	-29.007	0.100
322.000	-28.036	0.100
322.100	9.679	0.100
322.200	-18.308	0.100
322.300	-15.810	0.100
322.400	-14.264	0.100
322.500	-34.857	0.100
322.600	-20.799	0.100
322.700	-24.609	0.100
322.800	-9.886	0.100
322.900	-6.989	0.100
323.000	-21.184	0.100
323.100	-2.019	0.100
323.200	-9.767	0.100
323.300	-16.275	0.100
323.400	-36.123	0.100
323.500	3.021	0.100
323.600	-28.782	0.100
323.700	-23.377	0.100
323.800	-9.880	0.100
323.900	-15.805	0.100
324.000	-15.923	0.100
324.100	-18.397	0.100
324.200	-20.143	0.100
324.300	-5.769	0.100
324.400	-34.576	0.100
324.500	-14.110	0.100
324.600	-24.780	0.100
324.700	-14.167	0.100
324.800	-16.436	0.100
324.900	-11.396	0.100
325.000	-30.237	0.100
325.100	-7.042	0.100
325.200	-6.824	0.100
325.300	-28.226	0.100
325.400	-12.719	0.100
325.500	-10.316	0.100
325.600	-12.868	0.100
325.700	-20.829	0.100
325.800	2.404	0.100
325.900	-26.352	0.100
326.000	-18.313	0.100
326.100	-17.928	0.100
326.200	-5.688	0.100
326.300	-12.484	0.100
326.400	-29.374	0.100
326.500	-18.978	0.100
326.600	-40.125	0.100
326.700	-30.242	0.100
326.800	-14.884	0.100
326.900	-17.923	0.100
327.000	-32.281	0.100
327.100	-18.182	0.100
327.200	-18.722	0.100
327.300	-7.832	0.100
327.400	-23.639	0.100
327.500	-11.611	0.100
327.600	-13.482	0.100
327.700	-15.580	0.100
327.800	-9.716	0.100
327.900	-24.559	0.100
328.000	-0.978	0.100
328.100	-24.549	0.100
328.200	-29.598	0.100
328.300	-6.165	0.100
328.400	-34.398	0.100
328.500	-3.497	0.100
328.600	-23.782	0.100
328.700	-10.152	0.100
328.800	-2.419	0.100
328.900	-24.341	0.100
329.000	-6.188	0.100
329.100	-20.347	0.100
329.200	-21.914	0.100
329.300	-24.658	0.100
329.400	-21.760	0.100
329.500	-12.237	0.100
329.600	-22.468	0.100
329.700	-1.501	0.100
329.800	-22.975	0.100
329.900	-11.120	0.100
330.000	-27.836	0.100
330.100	13.384	0.100
330.200	20.536	0.100
330.300	-4.019	0.100
330.400	3.048	0.100
330.500	-11.117	0.100
330.600	4.274	0.100
330.700	4.198	0.100
330.800	26.481	0.100
330.900	3.642	0.100
331.000	-9.160	0.100
331.100	13.773	0.100
331.200	7.388	0.100
331.300	-9.660	0.100
331.400	20.374	0.100
331.500	19.475	0.100
331.600	22.824	0.100
331.700	3.567	0.100
331.800	0.590	0.100
331.900	17.592	0.100
332.000	5.055	0.100
332.100	34.250	0.100
332.200	28.456	0.100
332.300	19.215	0.100
332.400	8.674	0.100
332.500	13.777	0.100
332.600	26.540	0.100
332.700	1.502	0.100
332.800	21.993	0.100
332.900	12.882	0.100
333.000	13.626	0.100
333.100	30.474	0.100
333.200	20.232	0.100
333.300	-2.293	0.100
333.400	21.133	0.100
333.500	12.532	0.100
333.600	6.575	0.100
333.700	9.818	0.100
333.800	9.803	0.100
333.900	4.537	0.100
334.000	24.359	0.100
334.100	-7.403	0.100
334.200	6.369	0.100
334.300	2.008	0.100
334.400	7.383	0.100
334.500	11.594	0.100
334.600	24.266	0.100
334.700	-5.528	0.100
334.800	24.663	0.100
334.900	-6.822	0.100
335.000	-0.430	0.100
335.100	-5.645	0.100
335.200	8.100	0.100
335.300	20.339	0.100
335.400	4.109	0.100
335.500	-9.409	0.100
335.600	18.915	0.100
335.700	4.083	0.100
335.800	3.511	0.100
335.900	21.976	0.100
336.000	12.322	0.100
336.100	-9.611	0.100
336.200	28.545	0.100
336.300	-2.552	0.100
336.400	7.851	0.100
336.500	10.632	0.100
336.600	8.111	0.100
336.700	7.721	0.100
336.800	4.862	0.100
336.900	4.491	0.100
337.000	7.036	0.100
337.100	14.734	0.100
337.200	-6.986	0.100
337.300	24.705	0.100
337.400	19.582	0.100
337.500	-5.411	0.100
337.600	2.575	0.100
337.700	2.282	0.100
337.800	0.747	0.100
337.900	9.830	0.100
338.000	27.216	0.100
338.100	16.608	0.100
338.200	28.486	0.100
338.300	-2.860	0.100
338.400	6.411	0.100
338.500	14.346	0.100
338.600	14.646	0.100
338.700	-4.836	0.100
338.800	15.431	0.100
338.900	16.553	0.100
339.000	0.882	0.100
339.100	7.534	0.100
339.200	28.117	0.100
339.300	31.115	0.100
339.400	13.679	0.100
339.500	20.660	0.100
339.600	25.881	0.100
339.700	5.624	0.100
339.800	12.854	0.100
339.900	31.416	0.100
340.000	15.913	0.100
340.100	11.770	0.100
340.200	22.839	0.100
340.300	12.879	0.100
340.400	17.687	0.100
340.500	30.044	0.100
340.600	18.869	0.100
340.700	19.523	0.100
340.800	14.990	0.100
340.900	24.213	0.100
341.000	29.072	0.100
341.100	27.549	0.100
341.200	19.600	0.100
341.300	19.647	0.100
341.400	15.389	0.100
341.500	22.334	0.100
341.600	22.525	0.100
341.700	18.340	0.100
341.800	19.202	0.100
341.900	18.625	0.100
342.000	36.975	0.100
342.100	12.581	0.100
342.200	16.969	0.100
342.300	24.574	0.100
342.400	36.935	0.100
342.500	23.963	0.100
342.600	25.664	0.100
342.700	11.557	0.100
342.800	26.304	0.100
342.900	31.200	0.100
343.000	54.791	0.100
343.100	31.689	0.100
343.200	35.489	0.100
343.300	18.528	0.100
343.400	9.461	0.100
343.500	24.610	0.100
343.600	45.979	0.100
343.700	17.668	0.100
343.800	35.829	0.100
343.900	36.983	0.100
344.000	36.426	0.100
344.100	39.313	0.100
344.200	45.517	0.100
344.300	34.175	0.100
344.400	38.285	0.100
344.500	15.895	0.100
344.600	29.582	0.100
344.700	34.543	0.100
344.800	35.017	0.100
344.900	36.973	0.100
345.000	16.261	0.100
345.100	46.503	0.100
345.200	31.376	0.100
345.300	53.048	0.100
345.400	54.644	0.100
345.500	33.555	0.100
345.600	33.564	0.100
345.700	40.849	0.100
345.800	34.152	0.100
345.900	50.397	0.100
346.000	36.715	0.100
346.100	26.904	0.100
346.200	35.398	0.100
346.300	38.166	0.100
346.400	42.755	0.100
346.500	48.403	0.100
346.600	49.061	0.100
346.700	37.598	0.100
346.800	48.257	0.100
346.900	38.391	0.100
347.000	58.886	0.100
347.100	49.047	0.100
347.200	41.689	0.100
347.300	63.645	0.100
347.400	51.951	0.100
347.500	43.013	0.100
347.600	27.769	0.100
347.700	42.035	0.100
347.800	24.508	0.100
347.900	55.000	0.100
348.000	41.691	0.100
348.100	38.794	0.100
348.200	61.650	0.100
348.300	46.205	0.100
348.400	44.653	0.100
348.500	29.751	0.100
348.600	52.539	0.100
348.700	32.251	0.100
348.800	66.207	0.100
348.900	47.651	0.100
349.000	35.661	0.099
349.100	48.548	0.099
349.200	57.721	0.099
349.300	34.886	0.099
349.400	66.083	0.099
349.500	49.355	0.099
349.600	50.013	0.099
349.700	46.818	0.099
349.800	62.480	0.099
349.900	55.342	0.099
350.000	48.561	0.099
350.100	40.589	0.099
350.200	53.267	0.099
350.300	52.372	0.099
350.400	44.810	0.099
350.500	40.025	0.099
350.600	46.888	0.099
350.700	47.387	0.099
350.800	46.195	0.099
350.900	50.205	0.099
351.000	50.902	0.099
351.100	64.378	0.099
351.200	39.380	0.099
351.300	50.117	0.099
351.400	56.375	0.099
351.500	35.856	0.099
351.600	47.801	0.099
351.700	35.266	0.099
351.800	53.128	0.099
351.900	45.081	0.099
352.000	40.579	0.099
352.100	39.453	0.099
352.200	76.700	0.099
352.300	46.106	0.099
352.400	32.482	0.099
352.500	65.766	0.099
352.600	57.975	0.099
352.700	53.644	0.099
352.800	46.575	0.099
352.900	40.163	0.099
353.000	57.408	0.099
353.100	48.034	0.099
353.200	56.392	0.099
353.300	53.722	0.099
353.400	43.795	0.099
353.500	41.338	0.099
353.600	47.704	0.099
353.700	47.288	0.099
353.800	57.378	0.099
353.900	52.399	0.099
354.000	50.638	0.099
354.100	40.855	0.099
354.200	53.017	0.099
354.300	42.614	0.099
354.400	54.691	0.099
354.500	28.413	0.099
354.600	58.594	0.099
354.700	55.559	0.099
354.800	45.053	0.099
354.900	53.820	0.099
355.000	52.069	0.099
355.100	46.838	0.099
355.200	40.666	0.099
355.300	36.485	0.099
355.400	49.939	0.099
355.500	52.709	0.099
355.600	50.495	0.099
355.700	50.429	0.099
355.800	41.038	0.099
355.900	40.741	0.099
356.000	56.011	0.099
356.100	64.719	0.099
356.200	38.385	0.099
356.300	57.454	0.099
356.400	46.735	0.099
356.500	59.957	0.099
356.600	38.483	0.099
356.700	60.171	0.099
356.800	35.682	0.099
356.900	57.453	0.099
357.000	41.715	0.099
357.100	53.089	0.099
357.200	44.194	0.099
357.300	53.161	0.099
357.400	39.169	0.099
357.500	44.602	0.099
357.600	50.247	0.099
357.700	60.987	0.099
357.800	33.032	0.099
357.900	61.969	0.099
358.000	57.813	0.099
358.100	44.915	0.099
358.200	44.646	0.099
358.300	51.990	0.099
358.400	54.029	0.099
358.500	57.434	0.099
358.600	55.310	0.099
358.700	55.096	0.099
358.800	45.624	0.099
358.900	49.288	0.099
359.000	53.400	0.099
359.100	43.763	0.099
359.200	62.509	0.099
359.300	41.146	0.099
359.400	27.085	0.099
359.500	46.419	0.099
359.600	37.345	0.099
359.700	44.823	0.099
359.800	67.965	0.099
359.900	46.037	0.099
360.000	34.679	0.099
360.100	45.931	0.099
360.200	41.914	0.099
360.300	58.231	0.099
360.400	54.247	0.099
360.500	66.260	0.099
360.600	42.778	0.099
360.700	59.843	0.099
360.800	60.318	0.099
360.900	59.553	0.099
361.000	53.886	0.099
361.100	42.436	0.099
361.200	66.009	0.099
361.300	51.926	0.099
361.400	40.674	0.099
361.500	70.874	0.099
361.600	25.469	0.099
361.700	65.773	0.099
361.800	71.593	0.099
361.900	55.703	0.099
362.000	58.310	0.099
362.100	48.957	0.099
362.200	76.804	0.099
362.300	70.715	0.099
362.400	61.107	0.099
362.500	67.306	0.099
362.600	63.300	0.099
362.700	54.379	0.099
362.800	58.050	0.099
362.900	58.441	0.099
363.000	83.701	0.099
363.100	51.484	0.099
363.200	58.860	0.099
363.300	54.232	0.099
363.400	79.084	0.099
363.500	42.242	0.099
363.600	60.478	0.099
363.700	75.276	0.099
363.800	62.515	0.099
363.900	76.492	0.099
364.000	36.020	0.099
364.100	63.699	0.099
364.200	56.611	0.099
364.300	78.583	0.099
364.400	26.070	0.099
364.500	41.549	0.099
364.600	47.865	0.099
364.700	63.459	0.099
364.800	71.185	0.099
364.900	71.013	0.099
365.000	71.739	0.099
365.100	49.107	0.099
365.200	41.432	0.099
365.300	62.665	0.099
365.400	72.765	0.099
365.500	65.780	0.099
365.600	59.802	0.099
365.700	57.199	0.099
365.800	49.798	0.099
365.900	52.132	0.099
366.000	52.212	0.099
366.100	48.426	0.099
366.200	60.443	0.099
366.300	59.655	0.099
366.400	40.735	0.099
366.500	62.055	0.099
366.600	62.024	0.100
366.700	62.978	0.099
366.800	64.204	0.100
366.900	55.045	0.100
367.000	38.648	0.100
367.100	62.504	0.100
367.200	58.704	0.100
367.300	70.879	0.100
367.400	42.415	0.100
367.500	46.210	0.100
367.600	58.532	0.100
367.700	66.326	0.100
367.800	68.268	0.100
367.900	48.668	0.099
368.000	54.857	0.100
368.100	44.032	0.100
368.200	53.179	0.100
368.300	55.708	0.100
368.400	57.626	0.100
368.500	72.598	0.099
368.600	67.346	0.100
368.700	33.226	0.100
368.800	59.433	0.099
368.900	69.187	0.100
369.000	56.290	0.100
369.100	52.382	0.100
369.200	45.191	0.100
369.300	59.663	0.100
369.400	39.568	0.100
369.500	50.659	0.100
369.600	56.404	0.100
369.700	45.677	0.099
369.800	62.605	0.100
369.900	61.841	0.100
370.000	46.319	0.099
370.100	66.717	0.100
370.200	58.872	0.100
370.300	50.962	0.099
370.400	47.839	0.099
370.500	52.205	0.100
370.600	49.424	0.100
370.700	48.499	0.099
370.800	52.633	0.099
370.900	57.526	0.099
371.000	44.625	0.100
371.100	55.618	0.100
371.200	59.580	0.100
371.300	54.741	0.100
371.400	44.729	0.100
371.500	42.461	0.100
371.600	62.216	0.100
371.700	46.923	0.100
371.800	64.676	0.100
371.900	60.973	0.100
372.000	38.290	0.100
372.100	58.088	0.100
372.200	55.381	0.100
372.300	50.700	0.100
372.400	37.632	0.100
372.500	41.715	0.100
372.600	45.120	0.100
372.700	37.759	0.100
372.800	55.882	0.100
372.900	48.194	0.100
373.000	54.678	0.100
373.100	71.717	0.100
373.200	49.922	0.100
373.300	40.314	0.100
373.400	58.246	0.100
373.500	49.542	0.100
373.600	38.859	0.100
373.700	51.163	0.100
373.800	42.762	0.100
373.900	66.712	0.100
374.000	50.818	0.100
374.100	60.328	0.100
374.200	58.046	0.100
374.300	49.576	0.100
374.400	50.869	0.100
374.500	40.242	0.100
374.600	57.112	0.100
374.700	67.545	0.100
374.800	33.167	0.100
374.900	45.098	0.100
375.000	49.394	0.100
375.100	51.556	0.100
375.200	49.053	0.100
375.300	43.801	0.100
375.400	45.170	0.100
375.500	38.572	0.100
375.600	59.569	0.100
375.700	29.499	0.100
375.800	49.522	0.100
375.900	53.585	0.100
376.000	54.851	0.100
376.100	30.313	0.100
376.200	69.259	0.100
376.300	64.648	0.100
376.400	39.324	0.100
376.500	46.108	0.100
376.600	58.583	0.100
376.700	17.161	0.100
376.800	62.051	0.100
376.900	49.436	0.100
377.000	52.222	0.100
377.100	51.512	0.100
377.200	39.917	0.100
377.300	60.160	0.100
377.400	51.309	0.100
377.500	33.165	0.100
377.600	50.077	0.100
377.700	61.591	0.100
377.800	46.391	0.100
377.900	33.626	0.100
378.000	39.312	0.100
378.100	19.806	0.100
378.200	60.186	0.100
378.300	66.394	0.100
378.400	29.135	0.100
378.500	33.005	0.100
378.600	54.389	0.100
378.700	48.251	0.100
378.800	47.357	0.100
378.900	61.363	0.100
379.000	31.307	0.100
379.100	38.908	0.100
379.200	47.133	0.100
379.300	39.161	0.100
379.400	40.955	0.100
379.500	58.132	0.100
379.600	43.193	0.100
379.700	64.956	0.100
379.800	26.793	0.100
379.900	30.906	0.100
380.000	56.512	0.100
380.100	53.050	0.100
380.200	45.684	0.100
380.300	46.740	0.100
380.400	42.201	0.100
380.500	48.086	0.100
380.600	44.962	0.100
380.700	40.658	0.099
380.800	25.936	0.100
380.900	42.534	0.100
381.000	31.924	0.100
381.100	70.993	0.100
381.200	26.816	0.099
381.300	49.972	0.100
381.400	29.027	0.100
381.500	53.967	0.100
381.600	21.524	0.100
381.700	55.305	0.100
381.800	64.735	0.100
381.900	51.532	0.100
382.000	31.910	0.100
382.100	24.634	0.100
382.200	67.961	0.100
382.300	50.774	0.100
382.400	20.670	0.100
382.500	48.665	0.100
382.600	43.669	0.100
382.700	47.777	0.100
382.800	51.979	0.100
382.900	55.218	0.100
383.000	51.507	0.100
383.100	36.278	0.100
383.200	42.923	0.100
383.300	50.622	0.100
383.400	52.121	0.100
383.500	44.662	0.100
383.600	26.081	0.100
383.700	32.970	0.100
383.800	41.237	0.100
383.900	48.807	0.100
384.000	50.068	0.100
384.100	38.112	0.100
384.200	51.842	0.100
384.300	31.195	0.100
384.400	44.289	0.100
384.500	42.336	0.100
384.600	50.345	0.100
384.700	47.694	0.100
384.800	33.157	0.100
384.900	51.855	0.100
385.000	53.702	0.100
385.100	21.434	0.100
385.200	49.833	0.100
385.300	30.555	0.100
385.400	37.594	0.100
385.500	48.350	0.100
385.600	43.672	0.100
385.700	46.569	0.100
385.800	21.057	0.100
385.900	52.600	0.100
386.000	47.463	0.100
386.100	60.366	0.100
386.200	35.350	0.100
386.300	52.732	0.100
386.400	59.333	0.100
386.500	42.152	0.100
386.600	60.294	0.100
386.700	47.038	0.100
386.800	29.519	0.100
386.900	53.054	0.100
387.000	44.136	0.100
387.100	56.320	0.100
387.200	38.977	0.100
387.300	59.795	0.100
387.400	56.419	0.100
387.500	43.370	0.100
387.600	52.773	0.100
387.700	69.708	0.100
387.800	60.926	0.100
387.900	61.361	0.100
388.000	46.126	0.100
388.100	48.149	0.100
388.200	52.907	0.100
388.300	41.193	0.100
388.400	50.757	0.100
388.500	55.720	0.100
388.600	36.912	0.100
388.700	55.051	0.100
388.800	45.114	0.100
388.900	47.860	0.100
389.000	37.337	0.100
389.100	36.593	0.100
389.200	63.295	0.100
389.300	65.019	0.100
389.400	64.155	0.100
389.500	23.917	0.100
389.600	48.261	0.100
389.700	45.131	0.100
389.800	33.278	0.100
389.900	49.333	0.100
390.000	59.348	0.100
390.100	45.891	0.100
390.200	40.055	0.100
390.300	48.589	0.100
390.400	20.429	0.100
390.500	29.105	0.100
390.600	38.859	0.100
390.700	37.036	0.100
390.800	38.704	0.100
390.900	28.492	0.100
391.000	19.735	0.100
391.100	1.196	0.100
391.200	35.696	0.100
391.300	37.113	0.100
391.400	34.638	0.100
391.500	18.760	0.100
391.600	36.012	0.100
391.700	24.488	0.100
391.800	22.460	0.100
391.900	-0.118	0.100
392.000	25.032	0.100
392.100	2.685	0.100
392.200	8.746	0.100
392.300	7.575	0.100
392.400	8.058	0.100
392.500	5.566	0.100
392.600	19.289	0.100
392.700	7.551	0.100
392.800	7.239	0.100
392.900	12.626	0.100
393.000	15.939	0.100
393.100	-4.846	0.100
393.200	-0.810	0.100
393.300	-4.371	0.100
393.400	2.476	0.100
393.500	-5.265	0.100
393.600	28.759	0.100
393.700	-12.823	0.100
393.800	-11.856	0.100
393.900	15.437	0.100
394.000	3.363	0.100
394.100	-7.497	0.100
394.200	15.150	0.100
394.300	13.429	0.100
394.400	-7.849	0.100
394.500	5.393	0.100
394.600	-7.803	0.100
394.700	2.664	0.100
394.800	10.996	0.100
394.900	-16.248	0.100
395.000	-16.992	0.100
395.100	13.571	0.100
395.200	0.108	0.100
395.300	-14.459	0.100
395.400	-7.506	0.100
395.500	11.654	0.100
395.600	-0.891	0.100
395.700	11.543	0.100
395.800	3.892	0.100
395.900	-7.381	0.100
396.000	-1.851	0.100
396.100	-0.505	0.100
396.200	-2.595	0.100
396.300	-7.265	0.100
396.400	6.358	0.100
396.500	9.927	0.100
396.600	3.255	0.100
396.700	-8.695	0.100
396.800	-8.311	0.100
396.900	-12.560	0.100
397.000	-4.986	0.100
397.100	-1.551	0.100
397.200	-18.502	0.100
397.300	3.414	0.100
397.400	29.354	0.100
397.500	4.189	0.100
397.600	12.180	0.100
397.700	7.600	0.100
397.800	4.303	0.100
397.900	9.597	0.100
398.000	-16.445	0.100
398.100	-17.500	0.100
398.200	8.443	0.100
398.300	-6.280	0.100
398.400	-5.195	0.100
398.500	-12.557	0.100
398.600	-29.275	0.100
398.700	-23.602	0.100
398.800	-9.702	0.100
398.900	22.416	0.100
399.000	2.971	0.100
399.100	-3.473	0.100
399.200	8.383	0.100
399.300	-9.996	0.100
399.400	17.155	0.100
399.500	-5.425	0.100
399.600	-2.044	0.100
399.700	-10.047	0.100
399.800	-7.827	0.100
399.900	-2.043	0.100
400.000	-16.368	0.100
400.100	-12.685	0.100
400.200	10.153	0.100
400.300	-3.381	0.100
400.400	11.987	0.100
400.500	5.101	0.100
400.600	1.311	0.100
400.700	-1.205	0.100
400.800	-28.065	0.100
400.900	10.520	0.100
401.000	-13.706	0.100
401.100	-5.604	0.100
401.200	-4.257	0.100
401.300	-11.025	0.100
401.400	14.612	0.100
401.500	-6.414	0.100
401.600	9.235	0.100
401.700	6.274	0.100
401.800	-21.295	0.100
401.900	-0.300	0.100
402.000	-21.440	0.100
402.100	4.718	0.100
402.200	-15.767	0.100
402.300	-4.609	0.100
402.400	-23.474	0.100
402.500	-9.777	0.100
402.600	-3.437	0.100
402.700	-17.083	0.100
402.800	-14.007	0.100
402.900	5.235	0.100
403.000	-6.795	0.100
403.100	6.065	0.100
403.200	22.792	0.100
403.300	-1.517	0.100
403.400	-7.852	0.100
403.500	3.094	0.100
403.600	-4.728	0.100
403.700	-25.110	0.100
403.800	-13.642	0.100
403.900	-1.605	0.100
404.000	2.970	0.100
404.100	-17.606	0.100
404.200	-0.472	0.100
404.300	6.973	0.100
404.400	-7.251	0.100
404.500	-7.110	0.100
404.600	10.664	0.100
404.700	-15.159	0.100
404.800	-2.350	0.100
404.900	1.035	0.100
405.000	-23.918	0.100
405.100	-16.571	0.100
405.200	9.598	0.100
405.300	10.313	0.100
405.400	-14.411	0.100
405.500	-7.020	0.100
405.600	0.458	0.100
405.700	-1.168	0.100
405.800	-13.580	0.100
405.900	-27.448	0.100
406.000	-10.347	0.100
406.100	-2.233	0.100
406.200	-13.341	0.100
406.300	-24.627	0.100
406.400	-1.117	0.100
406.500	-5.525	0.100
406.600	-15.298	0.100
406.700	-0.512	0.100
406.800	-13.470	0.100
406.900	-4.676	0.100
407.000	-3.406	0.100
407.100	8.283	0.100
407.200	-37.101	0.100
407.300	0.904	0.100
407.400	2.023	0.100
407.500	-4.882	0.100
407.600	-2.637	0.100
407.700	-23.120	0.100
407.800	-8.759	0.100
407.900	-8.326	0.100
408.000	-13.067	0.100
408.100	-20.180	0.100
408.200	-10.619	0.100
408.300	5.437	0.100
408.400	-27.353	0.100
408.500	-35.071	0.100
408.600	-8.099	0.100
408.700	-31.601	0.100
408.800	-9.276	0.100
408.900	-15.712	0.100
409.000	-10.973	0.100
409.100	-7.437	0.100
409.200	-15.252	0.100
409.300	-4.404	0.100
409.400	-6.316	0.100
409.500	-4.053	0.100
409.600	-18.197	0.100
409.700	-18.106	0.100
409.800	-1.337	0.100
409.900	-6.496	0.100
410.000	-7.576	0.100
410.100	-15.476	0.100
410.200	-5.417	0.100
410.300	-9.521	0.100
410.400	-24.191	0.100
410.500	-24.351	0.100
410.600	-15.089	0.100
410.700	-1.408	0.100
410.800	-7.886	0.100
410.900	-7.278	0.099
411.000	-4.359	0.099
411.100	-17.860	0.099
411.200	-19.103	0.099
411.300	-15.837	0.099
411.400	0.399	0.099
411.500	-9.841	0.099
411.600	-18.195	0.099
411.700	-6.518	0.099
411.800	-18.121	0.099
411.900	-27.328	0.099
412.000	-34.409	0.099
412.100	-14.416	0.099
412.200	-16.329	0.099
412.300	-25.541	0.099
412.400	-1.778	0.099
412.500	-16.075	0.099
412.600	-24.713	0.099
412.700	-3.897	0.099
412.800	-20.607	0.099
412.900	-19.068	0.099
413.000	-18.799	0.099
413.100	-11.070	0.099
413.200	-27.376	0.099
413.300	-13.319	0.099
413.400	-32.037	0.099
413.500	-19.626	0.099
413.600	-11.387	0.099
413.700	-20.038	0.099
413.800	-7.682	0.099
413.900	-33.840	0.099
414.000	-15.318	0.099
414.100	-15.711	0.099
414.200	-20.715	0.099
414.300	-4.163	0.099
414.400	-23.144	0.099
414.500	-16.054	0.099
414.600	-3.190	0.099
414.700	-19.973	0.099
414.800	-13.270	0.099
414.900	-1.419	0.099
415.000	-11.759	0.099
415.100	-14.115	0.099
415.200	-19.795	0.099
415.300	-23.166	0.099
415.400	-42.244	0.099
415.500	-40.975	0.099
415.600	-1.045	0.099
415.700	7.474	0.099
415.800	-17.498	0.099
415.900	-27.957	0.099
416.000	-6.706	0.099
416.100	-31.458	0.099
416.200	-28.746	0.099
416.300	-19.552	0.099
416.400	-12.938	0.099
416.500	-12.908	0.099
416.600	-7.710	0.099
416.700	-34.107	0.099
416.800	-3.565	0.099
416.900	-26.516	0.099
417.000	-20.279	0.099
417.100	-8.605	0.099
417.200	0.641	0.099
417.300	-12.839	0.099
417.400	-18.663	0.099
417.500	-33.341	0.099
417.600	-17.559	0.099
417.700	-17.565	0.099
417.800	-22.518	0.099
417.900	-21.846	0.099
418.000	-20.987	0.099
418.100	-25.807	0.099
418.200	-13.995	0.099
418.300	-15.317	0.099
418.400	-7.294	0.099
418.500	-10.018	0.099
418.600	-13.957	0.099
418.700	-21.528	0.099
418.800	-4.980	0.099
418.900	-17.560	0.099
419.000	-35.698	0.099
419.100	-18.127	0.099
419.200	-14.997	0.099
419.300	-5.502	0.099
419.400	-42.160	0.099
419.500	-27.951	0.099
419.600	-19.161	0.099
419.700	-4.680	0.099
419.800	-17.746	0.099
419.900	-10.652	0.099
420.000	-24.468	0.099
420.100	-14.810	0.099
420.200	-17.699	0.099
420.300	-9.969	0.099
420.400	-16.896	0.099
420.500	-24.101	0.099
420.600	-26.986	0.099
420.700	-20.440	0.099
420.800	-13.230	0.099
420.900	-25.975	0.099
421.000	-25.302	0.099
421.100	-13.461	0.099
421.200	-27.358	0.099
421.300	-19.305	0.099
421.400	-16.613	0.099
421.500	-11.366	0.099
421.600	-19.653	0.099
421.700	-16.813	0.099
421.800	-12.676	0.099
421.900	-6.626	0.099
422.000	-17.781	0.099
422.100	-27.902	0.099
422.200	-44.019	0.099
422.300	11.444	0.099
422.400	-15.128	0.099
422.500	-9.945	0.099
422.600	-19.265	0.099
422.700	-35.602	0.099
422.800	-26.229	0.099
422.900	-9.472	0.099
423.000	-10.487	0.099
423.100	-15.942	0.099
423.200	-18.180	0.099
423.300	-44.466	0.099
423.400	-20.839	0.099
423.500	-15.352	0.099
423.600	-16.018	0.099
423.700	10.340	0.099
423.800	-15.113	0.099
423.900	-14.507	0.099
424.000	-25.462	0.099
424.100	-16.047	0.099
424.200	-26.039	0.099
424.300	-30.401	0.099
424.400	-14.994	0.099
424.500	-26.696	0.099
424.600	-18.009	0.099
424.700	-21.771	0.099
424.800	-23.401	0.099
424.900	-22.285	0.099
425.000	-10.935	0.099
425.100	-20.162	0.099
425.200	-4.042	0.099
425.300	-28.832	0.099
425.400	-16.616	0.099
425.500	-18.503	0.099
425.600	-30.163	0.099
425.700	-16.997	0.099
425.800	-19.050	0.099
425.900	-33.039	0.099
426.000	-24.397	0.099
426.100	-9.230	0.099
426.200	-22.304	0.099
426.300	-28.870	0.099
426.400	-12.915	0.099
426.500	-28.383	0.099
426.600	-18.533	0.099
426.700	-13.228	0.099
426.800	-4.376	0.099
426.900	-21.408	0.099
427.000	-15.648	0.099
427.100	-28.472	0.099
427.200	-15.507	0.099
427.300	-14.323	0.100
427.400	-33.425	0.099
427.500	-31.333	0.099
427.600	-9.285	0.099
427.700	-12.427	0.100
427.800	-14.395	0.100
427.900	-13.586	0.100
428.000	-4.101	0.099
428.100	-13.291	0.099
428.200	-18.738	0.100
428.300	-25.613	0.100
428.400	-23.150	0.100
428.500	-40.007	0.100
428.600	-13.600	0.100
428.700	-2.729	0.100
428.800	-16.622	0.100
428.900	-39.890	0.100
429.000	2.400	0.100
429.100	-30.592	0.100
429.200	-18.658	0.100
429.300	-6.666	0.100
429.400	-20.951	0.100
429.500	-30.675	0.100
429.600	-4.889	0.100
429.700	-33.389	0.100
429.800	-19.796	0.100
429.900	-34.525	0.100
430.000	-7.321	0.100
430.100	-28.265	0.100
430.200	-6.487	0.100
430.300	-15.883	0.100
430.400	-34.830	0.100
430.500	-34.680	0.100
430.600	-6.460	0.100
430.700	-17.390	0.100
430.800	-25.915	0.100
430.900	-33.229	0.100
431.000	-10.898	0.100
431.100	-25.065	0.099
431.200	-23.646	0.100
431.300	-21.519	0.100
431.400	-4.837	0.100
431.500	-24.556	0.099
431.600	-17.029	0.100
431.700	-16.291	0.099
431.800	-22.422	0.100
431.900	-23.872	0.099
432.000	-29.983	0.100
432.100	-6.748	0.099
432.200	-20.379	0.100
432.300	-33.651	0.100
432.400	-15.069	0.100
432.500	-23.008	0.100
432.600	-23.128	0.100
432.700	-21.424	0.100
432.800	-17.682	0.100
432.900	-30.579	0.100
433.000	-22.044	0.100
433.100	-20.335	0.100
433.200	-32.021	0.100
433.300	-27.195	0.100
433.400	-16.716	0.100
433.500	-8.795	0.100
433.600	-34.328	0.100
433.700	-10.212	0.100
433.800	-44.928	0.100
433.900	-13.529	0.100
434.000	-26.033	0.100
434.100	-9.707	0.100
434.200	-12.507	0.100
434.300	-8.924	0.100
434.400	-21.964	0.100
434.500	-22.838	0.100
434.600	-22.710	0.100
434.700	-32.134	0.100
434.800	-17.838	0.100
434.900	-33.628	0.100
435.000	-24.776	0.100
435.100	-23.114	0.100
435.200	-5.276	0.100
435.300	-30.836	0.100
435.400	-15.912	0.100
435.500	-39.009	0.100
435.600	-10.671	0.100
435.700	-39.538	0.100
435.800	-9.901	0.100
435.900	-2.673	0.100
436.000	-22.872	0.100
436.100	-55.915	0.100
436.200	-11.990	0.100
436.300	-14.376	0.100
436.400	-20.111	0.100
436.500	-14.531	0.100
436.600	-7.530	0.100
436.700	-37.501	0.100
436.800	-16.932	0.100
436.900	-29.650	0.100
437.000	0.944	0.100
437.100	-7.225	0.100
437.200	-19.076	0.100
437.300	-23.785	0.100
437.400	-16.641	0.100
437.500	-20.240	0.100
437.600	-8.957	0.100
437.700	-32.314	0.100
437.800	-6.491	0.100
437.900	-10.688	0.100
438.000	-27.918	0.100
438.100	-4.051	0.100
438.200	-26.386	0.100
438.300	-30.280	0.100
438.400	-4.135	0.100
438.500	-21.828	0.100
438.600	-26.386	0.100
438.700	-45.401	0.099
438.800	-22.119	0.100
438.900	-16.456	0.100
439.000	-9.462	0.100
439.100	-6.913	0.100
439.200	-18.593	0.099
439.300	-35.819	0.100
439.400	-30.023	0.100
439.500	-40.549	0.099
439.600	6.201	0.099
439.700	-25.359	0.100
439.800	-4.245	0.099
439.900	-10.723	0.100
440.000	-5.583	0.100
440.100	-27.891	0.100
440.200	-11.741	0.100
440.300	-10.743	0.100
440.400	-22.350	0.100
440.500	-4.718	0.100
440.600	-25.357	0.100
440.700	-15.646	0.100
440.800	-22.710	0.100
440.900	-22.898	0.100
441.000	-34.603	0.100
441.100	-7.608	0.100
441.200	-29.895	0.100
441.300	-17.904	0.100
441.400	-40.694	0.100
441.500	-13.846	0.100
441.600	-34.706	0.099
441.700	-2.917	0.099
441.800	-16.124	0.100
441.900	-8.369	0.100
442.000	-33.964	0.100
442.100	-17.136	0.100
442.200	-22.017	0.100
442.300	-18.552	0.100
442.400	-33.865	0.100
442.500	-21.991	0.100
442.600	-32.634	0.100
442.700	-25.960	0.100
442.800	-20.874	0.100
442.900	-31.152	0.099
443.000	-22.260	0.100
443.100	-5.260	0.099
443.200	0.830	0.099
443.300	-25.809	0.099
443.400	-41.307	0.099
443.500	-48.049	0.099
443.600	14.808	0.099
443.700	-25.673	0.100
443.800	-21.340	0.100
443.900	-34.833	0.099
444.000	-13.181	0.099
444.100	-15.953	0.099
444.200	-0.051	0.099
444.300	-14.394	0.099
444.400	-25.792	0.099
444.500	-23.204	0.099
444.600	-21.610	0.099
444.700	-19.174	0.099
444.800	-28.365	0.099
444.900	-34.468	0.099
445.000	-20.512	0.099
445.100	-11.942	0.099
445.200	-5.558	0.099
445.300	-17.957	0.099
445.400	-32.908	0.099
445.500	-25.487	0.099
445.600	-8.780	0.099
445.700	-39.028	0.099
445.800	-24.826	0.099
445.900	-10.853	0.099
446.000	-33.160	0.099
446.100	-3.349	0.099
446.200	-13.472	0.099
446.300	-6.475	0.099
446.400	-34.773	0.099
446.500	-23.501	0.099
446.600	-25.021	0.099
446.700	-30.569	0.099
446.800	-4.142	0.099
446.900	2.461	0.099
447.000	-13.042	0.099
447.100	-19.160	0.099
447.200	0.418	0.099
447.300	-28.589	0.099
447.400	-35.017	0.099
447.500	-2.260	0.099
447.600	-29.310	0.099
447.700	-23.995	0.099
447.800	-35.864	0.099
447.900	-21.587	0.099
448.000	-6.945	0.099
448.100	-7.368	0.099
448.200	-4.425	0.099
448.300	-36.535	0.099
448.400	-36.879	0.099
448.500	-16.586	0.099
448.600	6.644	0.099
448.700	-26.684	0.099
448.800	-26.531	0.099
448.900	-17.663	0.099
449.000	-18.118	0.099
449.100	-31.268	0.099
449.200	-17.922	0.099
449.300	-30.727	0.099
449.400	-1.702	0.099
449.500	-28.827	0.099
449.600	-59.191	0.099
449.700	8.138	0.099
449.800	-31.625	0.099
449.900	-20.355	0.099
450.000	-3.806	0.099
450.100	-31.501	0.099
450.200	-30.629	0.099
450.300	-6.719	0.099
450.400	-0.961	0.099
450.500	-22.378	0.099
450.600	-18.362	0.099
450.700	-12.472	0.099
450.800	-21.041	0.099
450.900	-24.364	0.099
451.000	-18.969	0.099
451.100	-8.306	0.099
451.200	-27.904	0.099
451.300	-27.536	0.099
451.400	-21.067	0.099
451.500	-29.898	0.099
451.600	-16.241	0.099
451.700	-5.358	0.099
451.800	-12.014	0.099
451.900	-20.747	0.099
452.000	-23.250	0.099
452.100	-17.800	0.099
452.200	-0.447	0.099
452.300	-41.711	0.099
452.400	-21.105	0.099
452.500	-16.541	0.099
452.600	-11.676	0.099
452.700	-27.159	0.099
452.800	-11.790	0.099
452.900	5.013	0.099
453.000	-40.774	0.099
453.100	-8.250	0.099
453.200	-27.160	0.099
453.300	-4.104	0.099
453.400	-38.051	0.099
453.500	-36.183	0.099
453.600	-18.126	0.099
453.700	0.391	0.099
453.800	-38.118	0.099
453.900	-20.030	0.099
454.000	-16.509	0.099
454.100	-29.639	0.099
454.200	-16.911	0.099
454.300	-2.914	0.099
454.400	-13.333	0.099
454.500	-22.738	0.099
454.600	-40.255	0.099
454.700	-22.686	0.099
454.800	-18.354	0.099
454.900	-5.541	0.099
455.000	-24.576	0.099
455.100	-24.239	0.099
455.200	-19.760	0.099
455.300	-39.451	0.099
455.400	-12.785	0.099
455.500	-27.899	0.099
455.600	-12.980	0.099
455.700	-18.944	0.099
455.800	-8.422	0.099
455.900	-16.484	0.099
456.000	-27.475	0.099
456.100	-14.158	0.099
456.200	-33.790	0.099
456.300	-28.580	0.099
456.400	-18.569	0.099
456.500	-16.789	0.099
456.600	-14.120	0.099
456.700	-20.812	0.099
456.800	-12.845	0.099
456.900	-34.139	0.099
457.000	-35.421	0.099
457.100	-17.833	0.099
457.200	-17.054	0.099
457.300	1.800	0.100
457.400	-20.584	0.099
457.500	-23.001	0.099
457.600	-17.634	0.099
457.700	-20.397	0.099
457.800	-15.713	0.099
457.900	-24.581	0.099
458.000	-29.142	0.099
458.100	-28.973	0.099
458.200	-14.603	0.099
458.300	-20.020	0.099
458.400	-15.369	0.099
458.500	-15.551	0.100
458.600	-24.528	0.099
458.700	-14.816	0.099
458.800	-13.874	0.099
458.900	-4.719	0.100
459.000	-18.506	0.099
459.100	-8.749	0.099
459.200	-9.275	0.099
459.300	-25.542	0.099
459.400	-15.906	0.099
459.500	-19.181	0.099
459.600	-28.035	0.099
459.700	-49.088	0.099
459.800	-15.303	0.099
459.900	-40.908	0.099
460.000	-13.261	0.099
460.100	-25.886	0.099
460.200	-28.464	0.099
460.300	-1.346	0.100
460.400	-21.736	0.099
460.500	-27.666	0.099
460.600	-9.360	0.099
460.700	-25.539	0.099
460.800	-10.723	0.099
460.900	-28.439	0.100
461.000	-20.848	0.100
461.100	-15.219	0.100
461.200	-23.562	0.100
461.300	-17.746	0.100
461.400	-28.628	0.100
461.500	-6.976	0.100
461.600	-22.276	0.100
461.700	-24.379	0.100
461.800	-22.332	0.100
461.900	-35.943	0.100
462.000	-23.496	0.100
462.100	-11.334	0.100
462.200	-18.866	0.100
462.300	-8.990	0.100
462.400	-32.470	0.100
462.500	-3.666	0.100
462.600	-18.054	0.100
462.700	-21.183	0.100
462.800	-25.109	0.100
462.900	-9.413	0.100
463.000	-12.861	0.100
463.100	-26.030	0.100
463.200	-18.611	0.100
463.300	-12.331	0.100
463.400	-17.979	0.100
463.500	-29.716	0.100
463.600	-19.584	0.100
463.700	-26.944	0.100
463.800	-25.048	0.100
463.900	-25.851	0.100
464.000	-25.710	0.100
464.100	-28.243	0.100
464.200	-32.373	0.100
464.300	-16.994	0.100
464.400	-22.522	0.100
464.500	-3.577	0.100
464.600	-30.233	0.100
464.700	-14.907	0.100
464.800	-19.905	0.100
464.900	-22.151	0.100
465.000	-28.678	0.100
465.100	-35.629	0.100
465.200	1.748	0.100
465.300	-26.176	0.100
465.400	-28.148	0.100
465.500	-15.773	0.100
465.600	-22.102	0.100
465.700	-28.798	0.100
465.800	-18.591	0.100
465.900	-12.408	0.100
466.000	-25.525	0.100
466.100	-24.688	0.100
466.200	-9.813	0.100
466.300	-10.202	0.100
466.400	-22.678	0.100
466.500	-32.504	0.099
466.600	-24.037	0.099
466.700	-23.834	0.099
466.800	6.242	0.099
466.900	-21.380	0.099
467.000	-23.644	0.099
467.100	-25.092	0.099
467.200	-12.676	0.099
467.300	-42.724	0.099
467.400	-7.273	0.099
467.500	-32.138	0.099
467.600	-6.852	0.099
467.700	-21.750	0.099
467.800	-22.198	0.099
467.900	-19.006	0.099
468.000	-28.197	0.099
468.100	-15.657	0.099
468.200	-11.280	0.099
468.300	-39.134	0.099
468.400	-11.862	0.099
468.500	-14.659	0.099
468.600	-25.074	0.099
468.700	-32.307	0.099
468.800	-18.766	0.099
468.900	-25.733	0.099
469.000	-9.205	0.099
469.100	-45.235	0.099
469.200	-6.080	0.099
469.300	-25.578	0.099
469.400	-30.510	0.099
469.500	-10.870	0.099
469.600	-34.608	0.099
469.700	-18.826	0.099
469.800	3.868	0.099
469.900	-27.876	0.099
470.000	-37.608	0.099
470.100	-16.189	0.099
470.200	-8.108	0.099
470.300	-1.300	0.099
470.400	-13.135	0.099
470.500	-20.464	0.099
470.600	-25.323	0.099
470.700	-18.657	0.099
470.800	-40.546	0.099
470.900	7.092	0.099
471.000	-15.950	0.099
471.100	-11.809	0.099
471.200	-20.252	0.099
471.300	-16.604	0.099
471.400	-44.233	0.099
471.500	-15.845	0.099
471.600	13.116	0.099
471.700	-14.329	0.099
471.800	-22.582	0.099
471.900	4.706	0.099
472.000	-33.281	0.099
472.100	-13.202	0.099
472.200	-8.036	0.099
472.300	-8.443	0.099
472.400	-32.553	0.099
472.500	-5.650	0.099
472.600	-35.649	0.099
472.700	-16.833	0.099
472.800	-38.554	0.099
472.900	-11.693	0.099
473.000	-3.290	0.099
473.100	-23.672	0.099
473.200	-19.643	0.099
473.300	-10.423	0.099
473.400	2.893	0.099
473.500	-24.594	0.099
473.600	-23.977	0.099
473.700	-18.045	0.099
473.800	-3.341	0.099
473.900	-13.931	0.099
474.000	-19.674	0.099
474.100	-9.439	0.099
474.200	-29.132	0.099
474.300	-17.670	0.099
474.400	-43.896	0.099
474.500	2.345	0.099
474.600	-19.247	0.099
474.700	-17.736	0.099
474.800	-26.582	0.099
474.900	-14.623	0.099
475.000	-25.958	0.099
475.100	-21.207	0.099
475.200	-9.121	0.099
475.300	-15.542	0.099
475.400	-26.009	0.099
475.500	-31.180	0.099
475.600	-31.454	0.099
475.700	-8.974	0.099
475.800	-14.568	0.099
475.900	-15.650	0.099
476.000	-9.075	0.099
476.100	-8.027	0.099
476.200	-34.906	0.099
476.300	-24.107	0.099
476.400	-24.362	0.099
476.500	-17.639	0.099
476.600	-7.902	0.099
476.700	-12.590	0.099
476.800	-16.571	0.099
476.900	-27.487	0.099
477.000	-16.246	0.099
477.100	-5.459	0.099
477.200	-25.916	0.099
477.300	-34.994	0.099
477.400	-5.675	0.099
477.500	-15.557	0.099
477.600	-15.618	0.099
477.700	-25.828	0.099
477.800	-22.884	0.099
477.900	-17.248	0.099
478.000	-23.200	0.099
478.100	-8.052	0.099
478.200	-22.926	0.099
478.300	-33.306	0.099
478.400	-31.632	0.099
478.500	-20.641	0.099
478.600	-4.968	0.099
478.700	-22.577	0.099
478.800	-10.681	0.099
478.900	-21.225	0.099
479.000	-6.356	0.099
479.100	-13.508	0.099
479.200	-18.993	0.099
479.300	-19.512	0.099
479.400	-38.713	0.099
479.500	-26.640	0.099
479.600	-16.600	0.099
479.700	-12.064	0.099
479.800	-11.907	0.099
479.900	-7.102	0.099
480.000	9.157	0.099
480.100	-15.160	0.099
480.200	-18.034	0.099
480.300	-6.210	0.099
480.400	-11.661	0.099
480.500	-5.572	0.099
480.600	-5.128	0.099
480.700	1.233	0.099
480.800	-15.604	0.099
480.900	2.013	0.099
481.000	19.803	0.099
481.100	-6.891	0.099
481.200	-1.286	0.099
481.300	9.145	0.099
481.400	13.677	0.099
481.500	10.128	0.099
481.600	2.652	0.099
481.700	6.004	0.099
481.800	13.648	0.099
481.900	-2.463	0.099
482.000	-3.191	0.099
482.100	-4.921	0.099
482.200	24.725	0.099
482.300	31.795	0.099
482.400	-0.067	0.099
482.500	17.360	0.099
482.600	30.342	0.099
482.700	4.865	0.099
482.800	-0.262	0.099
482.900	-4.507	0.099
483.000	26.221	0.099
483.100	-6.520	0.099
483.200	9.582	0.099
483.300	17.882	0.100
483.400	26.531	0.100
483.500	10.169	0.100
483.600	5.715	0.100
483.700	9.570	0.100
483.800	5.542	0.100
483.900	-6.973	0.100
484.000	31.648	0.100
484.100	26.318	0.100
484.200	-9.433	0.100
484.300	15.235	0.100
484.400	15.808	0.100
484.500	5.375	0.100
484.600	-2.031	0.100
484.700	4.785	0.100
484.800	16.988	0.100
484.900	11.634	0.100
485.000	8.141	0.100
485.100	0.102	0.100
485.200	-19.597	0.100
485.300	7.204	0.100
485.400	-6.502	0.100
485.500	12.585	0.100
485.600	-3.949	0.100
485.700	0.960	0.100
485.800	19.617	0.100
485.900	1.049	0.100
486.000	19.310	0.100
486.100	9.232	0.100
486.200	13.711	0.100
486.300	7.535	0.100
486.400	9.910	0.100
486.500	1.361	0.100
486.600	12.150	0.100
486.700	7.843	0.100
486.800	11.444	0.100
486.900	2.573	0.100
487.000	14.108	0.100
487.100	12.974	0.100
487.200	4.826	0.100
487.300	10.770	0.100
487.400	-7.555	0.100
487.500	8.554	0.100
487.600	-5.258	0.100
487.700	6.901	0.100
487.800	6.230	0.100
487.900	16.069	0.100
488.000	-22.458	0.100
488.100	23.064	0.100
488.200	27.546	0.100
488.300	20.962	0.100
488.400	15.266	0.100
488.500	-0.997	0.100
488.600	3.128	0.100
488.700	28.131	0.100
488.800	30.733	0.100
488.900	-0.065	0.100
489.000	16.596	0.100
489.100	8.844	0.100
489.200	6.208	0.100
489.300	11.667	0.100
489.400	12.643	0.100
489.500	-1.321	0.100
489.600	23.471	0.100
489.700	15.652	0.100
489.800	16.443	0.100
489.900	8.598	0.100
490.000	21.803	0.100
490.100	7.353	0.100
490.200	17.303	0.100
490.300	40.784	0.100
490.400	20.573	0.100
490.500	4.766	0.100
490.600	15.073	0.100
490.700	23.959	0.100
490.800	27.684	0.100
490.900	22.978	0.100
491.000	23.629	0.100
491.100	2.657	0.100
491.200	39.432	0.100
491.300	20.705	0.100
491.400	3.161	0.100
491.500	23.826	0.100
491.600	9.108	0.100
491.700	37.235	0.100
491.800	28.204	0.100
491.900	23.158	0.100
492.000	11.292	0.100
492.100	39.086	0.100
492.200	18.761	0.100
492.300	42.774	0.100
492.400	42.676	0.100
492.500	35.430	0.100
492.600	22.735	0.100
492.700	27.301	0.100
492.800	15.873	0.100
492.900	28.808	0.100
493.000	16.316	0.100
493.100	32.146	0.100
493.200	27.380	0.100
493.300	42.457	0.100
493.400	14.991	0.100
493.500	24.255	0.100
493.600	31.938	0.100
493.700	40.211	0.100
493.800	34.402	0.100
493.900	47.277	0.100
494.000	33.477	0.100
494.100	55.611	0.100
494.200	20.254	0.100
494.300	38.217	0.100
494.400	34.836	0.100
494.500	42.886	0.100
494.600	44.420	0.100
494.700	44.921	0.100
494.800	16.209	0.100
494.900	56.688	0.100
495.000	51.223	0.100
495.100	75.526	0.100
495.200	31.137	0.100
495.300	50.658	0.100
495.400	43.591	0.100
495.500	35.577	0.100
495.600	37.189	0.100
495.700	49.665	0.100
495.800	47.349	0.100
495.900	47.276	0.100
496.000	50.110	0.100
496.100	31.077	0.100
496.200	58.523	0.100
496.300	28.560	0.100
496.400	52.308	0.100
496.500	44.127	0.100
496.600	40.513	0.100
496.700	43.363	0.100
496.800	55.122	0.100
496.900	53.145	0.100
497.000	54.819	0.100
497.100	56.275	0.100
497.200	56.149	0.100
497.300	38.722	0.100
497.400	59.480	0.100
497.500	41.595	0.100
497.600	53.090	0.100
497.700	49.201	0.100
497.800	29.858	0.100
497.900	64.832	0.100
498.000	40.945	0.100
498.100	52.717	0.100
498.200	53.033	0.100
498.300	44.678	0.100
498.400	60.198	0.100
498.500	41.149	0.100
498.600	21.336	0.100
498.700	47.501	0.100
498.800	51.752	0.100
498.900	57.546	0.100
499.000	52.905	0.100
499.100	52.801	0.100
499.200	56.609	0.100
499.300	38.913	0.100
499.400	49.475	0.100
499.500	49.689	0.100
499.600	56.384	0.100
499.700	49.795	0.100
499.800	32.279	0.100
499.900	61.695	0.100
500.000	64.434	0.100
500.100	56.186	0.100
500.200	47.064	0.100
500.300	45.772	0.100
500.400	62.678	0.100
500.500	58.284	0.100
500.600	62.496	0.100
500.700	36.740	0.100
500.800	60.495	0.100
500.900	53.366	0.100
501.000	55.318	0.100
501.100	55.104	0.100
501.200	50.452	0.100
501.300	54.991	0.100
501.400	39.010	0.100
501.500	71.414	0.100
501.600	46.150	0.100
501.700	60.214	0.100
501.800	53.299	0.100
501.900	64.840	0.100
502.000	37.429	0.100
502.100	88.082	0.100
502.200	46.647	0.100
502.300	54.549	0.100
502.400	55.891	0.100
502.500	57.794	0.100
502.600	32.364	0.100
502.700	31.152	0.100
502.800	55.883	0.100
502.900	48.282	0.100
503.000	42.951	0.100
503.100	59.576	0.100
503.200	36.553	0.100
503.300	62.154	0.100
503.400	72.713	0.100
503.500	45.865	0.100
503.600	34.521	0.100
503.700	48.693	0.100
503.800	63.599	0.100
503.900	52.209	0.100
504.000	47.625	0.100
504.100	57.401	0.100
504.200	49.806	0.100
504.300	46.660	0.100
504.400	47.821	0.100
504.500	64.826	0.100
504.600	48.897	0.100
504.700	33.107	0.100
504.800	59.748	0.100
504.900	47.147	0.100
505.000	62.857	0.100
505.100	50.558	0.100
505.200	39.329	0.100
505.300	54.422	0.100
505.400	44.053	0.100
505.500	54.306	0.100
505.600	51.747	0.100
505.700	62.726	0.100
505.800	51.217	0.100
505.900	53.869	0.100
506.000	57.279	0.100
506.100	65.059	0.100
506.200	39.114	0.100
506.300	60.902	0.100
506.400	58.778	0.100
506.500	44.712	0.100
506.600	38.120	0.100
506.700	49.697	0.100
506.800	74.741	0.100
506.900	58.979	0.100
507.000	40.859	0.100
507.100	50.023	0.100
507.200	44.042	0.100
507.300	40.331	0.100
507.400	49.512	0.100
507.500	42.621	0.100
507.600	51.945	0.100
507.700	56.653	0.100
507.800	34.415	0.100
507.900	42.664	0.100
508.000	37.967	0.100
508.100	47.043	0.100
508.200	61.229	0.100
508.300	44.567	0.100
508.400	39.973	0.100
508.500	42.133	0.100
508.600	39.952	0.100
508.700	44.311	0.100
508.800	40.410	0.100
508.900	45.794	0.100
509.000	33.276	0.100
509.100	61.450	0.100
509.200	48.134	0.100
509.300	55.489	0.100
509.400	33.754	0.100
509.500	58.962	0.100
509.600	61.361	0.100
509.700	57.780	0.100
509.800	31.217	0.100
509.900	49.315	0.100
510.000	42.232	0.100
510.100	60.297	0.100
510.200	51.447	0.100
510.300	63.867	0.100
510.400	49.214	0.100
510.500	46.568	0.100
510.600	35.895	0.100
510.700	56.240	0.100
510.800	38.435	0.100
510.900	39.504	0.100
511.000	40.123	0.100
511.100	42.538	0.100
511.200	65.998	0.100
511.300	40.561	0.100
511.400	48.996	0.100
511.500	29.743	0.100
511.600	38.758	0.100
511.700	57.867	0.100
511.800	52.313	0.100
511.900	56.323	0.100
512.000	40.495	0.100
512.100	41.566	0.100
512.200	53.420	0.100
512.300	60.188	0.100
512.400	49.941	0.100
512.500	52.039	0.100
512.600	51.131	0.100
512.700	30.864	0.100
512.800	61.689	0.100
512.900	66.426	0.100
513.000	43.667	0.100
513.100	45.449	0.100
513.200	42.621	0.100
513.300	43.334	0.100
513.400	36.096	0.100
513.500	43.474	0.100
513.600	24.600	0.100
513.700	54.827	0.100
513.800	62.267	0.100
513.900	63.407	0.100
514.000	36.558	0.100
514.100	33.193	0.100
514.200	48.004	0.100
514.300	44.852	0.100
514.400	58.125	0.100
514.500	45.919	0.100
514.600	49.099	0.100
514.700	38.407	0.100
514.800	33.254	0.100
514.900	31.770	0.100
515.000	77.792	0.100
515.100	34.711	0.100
515.200	33.085	0.100
515.300	54.436	0.100
515.400	45.999	0.100
515.500	41.097	0.100
515.600	49.844	0.100
515.700	41.143	0.100
515.800	48.886	0.100
515.900	54.501	0.100
516.000	50.492	0.100
516.100	38.079	0.100
516.200	33.688	0.100
516.300	46.297	0.100
516.400	42.598	0.100
516.500	50.634	0.100
516.600	36.817	0.100
516.700	50.508	0.100
516.800	47.513	0.100
516.900	50.116	0.100
517.000	68.898	0.100
517.100	44.709	0.100
517.200	49.305	0.100
517.300	42.835	0.100
517.400	44.110	0.100
517.500	44.435	0.100
517.600	38.848	0.100
517.700	42.980	0.100
517.800	56.899	0.100
517.900	41.409	0.100
518.000	49.139	0.100
518.100	56.904	0.100
518.200	38.363	0.100
518.300	43.465	0.100
518.400	53.147	0.100
518.500	42.649	0.100
518.600	37.374	0.100
518.700	45.984	0.100
518.800	41.878	0.100
518.900	51.002	0.100
519.000	35.390	0.100
519.100	34.518	0.100
519.200	42.588	0.100
519.300	49.689	0.100
519.400	38.079	0.100
519.500	71.520	0.100
519.600	52.005	0.100
519.700	34.264	0.100
519.800	51.003	0.100
519.900	24.657	0.100
520.000	64.966	0.100
520.100	48.254	0.100
520.200	47.861	0.100
520.300	48.731	0.100
520.400	38.938	0.100
520.500	39.305	0.100
520.600	41.634	0.100
520.700	28.240	0.100
520.800	41.137	0.100
520.900	47.956	0.100
521.000	50.768	0.100
521.100	46.082	0.100
521.200	22.041	0.100
521.300	48.323	0.100
521.400	49.464	0.100
521.500	52.406	0.100
521.600	37.642	0.100
521.700	50.342	0.100
521.800	44.897	0.100
521.900	50.865	0.100
522.000	46.568	0.100
522.100	58.506	0.100
522.200	22.376	0.100
522.300	51.266	0.100
522.400	52.464	0.100
522.500	49.742	0.100
522.600	32.573	0.100
522.700	34.579	0.100
522.800	41.789	0.100
522.900	72.725	0.100
523.000	38.348	0.100
523.100	52.594	0.100
523.200	47.691	0.100
523.300	33.455	0.100
523.400	35.435	0.100
523.500	52.310	0.100
523.600	51.539	0.100
523.700	54.271	0.100
523.800	49.433	0.100
523.900	32.978	0.100
524.000	42.320	0.100
524.100	45.276	0.100
524.200	54.888	0.100
524.300	46.167	0.100
524.400	21.512	0.100
524.500	52.243	0.100
524.600	50.039	0.100
524.700	37.787	0.100
524.800	26.287	0.100
524.900	53.252	0.100
525.000	38.065	0.100
525.100	59.671	0.100
525.200	37.967	0.100
525.300	39.658	0.100
525.400	37.219	0.100
525.500	48.697	0.100
525.600	39.095	0.100
525.700	44.249	0.100
525.800	43.607	0.100
525.900	25.618	0.100
526.000	65.864	0.100
526.100	48.814	0.100
526.200	33.341	0.100
526.300	49.732	0.100
526.400	23.790	0.100
526.500	47.702	0.100
526.600	31.978	0.100
526.700	47.955	0.100
526.800	40.334	0.100
526.900	31.780	0.100
527.000	37.268	0.100
527.100	61.154	0.100
527.200	28.923	0.100
527.300	55.909	0.100
527.400	45.165	0.100
527.500	31.687	0.100
527.600	45.335	0.100
527.700	65.803	0.100
527.800	43.212	0.100
527.900	55.947	0.100
528.000	46.039	0.100
528.100	44.667	0.100
528.200	54.226	0.100
528.300	35.712	0.100
528.400	38.152	0.100
528.500	39.071	0.100
528.600	41.606	0.100
528.700	60.186	0.100
528.800	39.497	0.100
528.900	49.728	0.100
529.000	44.121	0.100
529.100	55.261	0.100
529.200	51.590	0.100
529.300	50.445	0.100
529.400	39.862	0.100
529.500	51.663	0.100
529.600	56.823	0.100
529.700	35.381	0.100
529.800	54.028	0.100
529.900	36.687	0.100
530.000	37.468	0.100
530.100	53.508	0.100
530.200	30.514	0.100
530.300	67.508	0.100
530.400	50.685	0.100
530.500	37.662	0.100
530.600	40.373	0.100
530.700	48.388	0.100
530.800	47.246	0.100
530.900	34.525	0.100
531.000	46.157	0.100
531.100	34.487	0.100
531.200	44.667	0.100
531.300	43.179	0.100
531.400	50.888	0.100
531.500	46.711	0.100
531.600	62.465	0.100
531.700	37.367	0.100
531.800	49.099	0.100
531.900	33.464	0.100
532.000	37.077	0.100
532.100	31.429	0.100
532.200	24.293	0.100
532.300	40.183	0.100
532.400	48.073	0.100
532.500	36.266	0.100
532.600	61.490	0.100
532.700	43.844	0.100
532.800	36.087	0.100
532.900	39.556	0.100
533.000	44.775	0.100
533.100	39.662	0.100
533.200	43.508	0.100
533.300	53.525	0.100
533.400	23.424	0.100
533.500	48.058	0.100
533.600	60.756	0.100
533.700	44.792	0.100
533.800	49.336	0.100
533.900	41.948	0.100
534.000	38.853	0.100
534.100	41.502	0.100
534.200	39.090	0.100
534.300	39.232	0.100
534.400	46.739	0.100
534.500	45.014	0.100
534.600	43.075	0.100
534.700	41.620	0.100
534.800	20.957	0.100
534.900	44.423	0.100
535.000	54.437	0.100
535.100	44.607	0.100
535.200	48.759	0.100
535.300	46.894	0.100
535.400	34.112	0.100
535.500	44.387	0.100
535.600	26.023	0.100
535.700	49.282	0.100
535.800	34.183	0.100
535.900	45.170	0.100
536.000	62.147	0.100
536.100	51.952	0.100
536.200	28.098	0.100
536.300	47.738	0.100
536.400	51.982	0.100
536.500	52.771	0.100
536.600	39.045	0.100
536.700	54.004	0.100
536.800	45.604	0.100
536.900	29.196	0.100
537.000	49.052	0.100
537.100	52.530	0.100
537.200	30.659	0.100
537.300	35.302	0.100
537.400	48.748	0.100
537.500	52.051	0.100
537.600	26.104	0.100
537.700	44.015	0.100
537.800	41.878	0.100
537.900	35.687	0.100
538.000	16.157	0.100
538.100	28.443	0.100
538.200	61.592	0.100
538.300	50.253	0.100
538.400	44.817	0.100
538.500	29.730	0.100
538.600	42.375	0.100
538.700	40.251	0.100
538.800	51.137	0.100
538.900	58.007	0.100
539.000	23.786	0.100
539.100	40.581	0.100
539.200	42.551	0.100
539.300	26.658	0.100
539.400	59.870	0.100
539.500	49.716	0.100
539.600	61.081	0.100
539.700	16.637	0.100
539.800	39.734	0.100
539.900	28.480	0.100
540.000	38.963	0.100
540.100	24.086	0.100
540.200	43.200	0.100
540.300	3.516	0.100
540.400	44.925	0.100
540.500	21.727	0.100
540.600	7.357	0.100
540.700	31.426	0.100
540.800	22.474	0.100
540.900	9.068	0.100
541.000	13.529	0.100
541.100	28.714	0.100
541.200	16.896	0.100
541.300	0.494	0.100
541.400	6.716	0.100
541.500	10.938	0.100
541.600	-1.421	0.100
541.700	-1.202	0.100
541.800	10.844	0.100
541.900	12.431	0.100
542.000	-0.117	0.100
542.100	25.674	0.100
542.200	-6.965	0.100
542.300	-2.224	0.100
542.400	-5.011	0.100
542.500	-9.724	0.100
542.600	17.172	0.100
542.700	-14.901	0.100
542.800	-4.763	0.100
542.900	-7.347	0.100
543.000	0.130	0.100
543.100	-7.195	0.100
543.200	-22.626	0.100
543.300	-4.684	0.100
543.400	-10.805	0.100
543.500	0.702	0.100
543.600	-17.651	0.100
543.700	-13.604	0.100
543.800	-6.928	0.100
543.900	-17.477	0.100
544.000	12.101	0.100
544.100	-25.340	0.100
544.200	9.795	0.100
544.300	-6.943	0.100
544.400	-21.868	0.100
544.500	-28.620	0.100
544.600	-16.271	0.100
544.700	10.772	0.100
544.800	-4.751	0.100
544.900	0.777	0.100
545.000	-23.739	0.100
545.100	-3.639	0.100
545.200	-9.526	0.100
545.300	-25.167	0.100
545.400	12.642	0.100
545.500	-23.652	0.100
545.600	-10.572	0.100
545.700	-19.236	0.100
545.800	-1.907	0.100
545.900	1.971	0.100
546.000	-9.377	0.100
546.100	-12.023	0.100
546.200	-14.531	0.100
546.300	-2.542	0.100
546.400	-17.755	0.100
546.500	-3.669	0.100
546.600	1.666	0.100
546.700	-21.468	0.100
546.800	-18.896	0.100
546.900	2.096	0.100
547.000	-12.062	0.100
547.100	-9.932	0.100
547.200	2.276	0.100
547.300	-5.997	0.100
547.400	6.975	0.100
547.500	-15.039	0.100
547.600	-23.300	0.100
547.700	-15.848	0.100
547.800	10.949	0.100
547.900	-26.706	0.100
548.000	20.333	0.100
548.100	-5.709	0.100
548.200	-1.121	0.100
548.300	-11.670	0.100
548.400	4.586	0.100
548.500	-13.605	0.100
548.600	-27.970	0.100
548.700	-18.063	0.100
548.800	2.465	0.100
548.900	-32.515	0.100
549.000	-14.463	0.100
549.100	-0.833	0.100
549.200	-14.246	0.100
549.300	-14.644	0.100
549.400	3.606	0.100
549.500	1.809	0.100
549.600	-29.420	0.100
549.700	-9.750	0.100
549.800	-16.701	0.100
549.900	-19.383	0.100
550.000	-27.282	0.100
550.100	-0.678	0.100
550.200	7.771	0.100
550.300	-7.331	0.100
550.400	-22.428	0.100
550.500	-26.585	0.100
550.600	5.199	0.100
550.700	-8.476	0.100
550.800	-24.866	0.100
550.900	-10.460	0.100
551.000	-21.604	0.100
551.100	-5.990	0.100
551.200	-8.408	0.100
551.300	-11.393	0.100
551.400	-3.944	0.100
551.500	-16.122	0.100
551.600	-18.249	0.100
551.700	-17.686	0.100
551.800	-4.442	0.100
551.900	12.414	0.100
552.000	-15.036	0.100
552.100	-15.828	0.100
552.200	-17.551	0.100
552.300	-11.202	0.100
552.400	-7.435	0.100
552.500	-7.176	0.100
552.600	-13.650	0.100
552.700	-16.769	0.100
552.800	1.625	0.100
552.900	-9.226	0.100
553.000	5.357	0.100
553.100	-2.901	0.100
553.200	-7.852	0.100
553.300	-17.260	0.100
553.400	1.844	0.100
553.500	-15.867	0.100
553.600	-8.536	0.100
553.700	-14.297	0.100
553.800	-19.773	0.100
553.900	-14.350	0.100
554.000	-6.077	0.100
554.100	-40.113	0.100
554.200	-10.387	0.100
554.300	-5.405	0.100
554.400	-21.166	0.100
554.500	-17.653	0.100
554.600	-16.379	0.100
554.700	-19.884	0.100
554.800	10.794	0.100
554.900	-19.170	0.100
555.000	-22.798	0.100
555.100	-9.879	0.100
555.200	-6.876	0.100
555.300	-0.578	0.100
555.400	-7.041	0.100
555.500	-8.420	0.100
555.600	-20.115	0.100
555.700	-5.925	0.100
555.800	-23.121	0.100
555.900	-23.339	0.100
556.000	-15.967	0.100
556.100	-30.140	0.100
556.200	-7.688	0.100
556.300	-6.954	0.100
556.400	-24.088	0.100
556.500	-30.085	0.100
556.600	-8.317	0.100
556.700	-23.272	0.100
556.800	12.764	0.100
556.900	-9.101	0.100
557.000	-15.161	0.100
557.100	-24.965	0.100
557.200	-7.966	0.100
557.300	-21.066	0.100
557.400	-24.948	0.100
557.500	-13.288	0.100
557.600	-11.275	0.100
557.700	-3.683	0.100
557.800	-17.780	0.100
557.900	-25.405	0.100
558.000	3.729	0.100
558.100	-24.244	0.100
558.200	-28.971	0.100
558.300	-18.590	0.100
558.400	-8.455	0.100
558.500	-12.379	0.100
558.600	-15.701	0.100
558.700	-9.384	0.100
558.800	-33.525	0.100
558.900	-26.172	0.100
559.000	-16.866	0.100
559.100	-7.347	0.100
559.200	-9.885	0.100
559.300	-18.686	0.100
559.400	-31.110	0.100
559.500	-19.918	0.100
559.600	-9.407	0.100
559.700	-20.462	0.100
559.800	-30.266	0.100
559.900	-13.440	0.100
560.000	-14.478	0.100
560.100	-22.888	0.100
560.200	-7.082	0.100
560.300	-12.574	0.100
560.400	2.635	0.100
560.500	-21.590	0.100
560.600	-18.134	0.100
560.700	-16.051	0.100
560.800	-28.983	0.100
560.900	-15.994	0.100
561.000	-7.552	0.100
561.100	-26.806	0.100
561.200	-24.615	0.100
561.300	-9.110	0.100
561.400	-41.049	0.100
561.500	-19.757	0.100
561.600	-14.346	0.100
561.700	-30.095	0.100
561.800	-7.407	0.100
561.900	-19.132	0.100
562.000	-42.294	0.100
562.100	-21.704	0.100
562.200	-16.345	0.100
562.300	-19.429	0.100
562.400	-25.633	0.100
562.500	-23.152	0.100
562.600	-14.620	0.100
562.700	-19.636	0.100
562.800	-34.244	0.100
562.900	-10.816	0.100
563.000	-27.680	0.100
563.100	-22.917	0.100
563.200	-16.503	0.100
563.300	-9.128	0.100
563.400	-31.116	0.100
563.500	-19.750	0.100
563.600	-2.249	0.100
563.700	-28.875	0.100
563.800	-17.493	0.100
563.900	-21.117	0.100
564.000	-0.185	0.100
564.100	-23.674	0.100
564.200	-3.923	0.100
564.300	-24.530	0.100
564.400	-19.517	0.100
564.500	-38.556	0.100
564.600	-10.694	0.099
564.700	-32.879	0.099
564.800	-1.691	0.099
564.900	-22.497	0.099
565.000	-19.551	0.099
565.100	-12.168	0.099
565.200	6.793	0.099
565.300	-23.123	0.099
565.400	-21.364	0.099
565.500	-7.835	0.099
565.600	-24.415	0.099
565.700	-28.240	0.099
565.800	-20.533	0.099
565.900	-7.637	0.099
566.000	-3.764	0.099
566.100	-22.153	0.099
566.200	-17.994	0.099
566.300	-10.690	0.099
566.400	-17.122	0.099
566.500	-58.403	0.099
566.600	-15.700	0.099
566.700	-0.763	0.099
566.800	-10.132	0.099
566.900	-28.302	0.099
567.000	-23.325	0.099
567.100	-19.207	0.099
567.200	-14.817	0.099
567.300	-7.090	0.099
567.400	-34.007	0.099
567.500	-20.193	0.099
567.600	-32.372	0.099
567.700	-18.326	0.099
567.800	-25.116	0.099
567.900	-28.189	0.099
568.000	-42.981	0.099
568.100	-31.644	0.099
568.200	-4.965	0.099
568.300	-11.145	0.099
568.400	-21.413	0.099
568.500	-33.345	0.099
568.600	-32.544	0.099
568.700	-11.804	0.099
568.800	-33.620	0.099
568.900	-40.154	0.099
569.000	9.583	0.099
569.100	-13.807	0.099
569.200	-21.398	0.099
569.300	-8.103	0.099
569.400	-30.735	0.099
569.500	-18.387	0.099
569.600	-18.213	0.099
569.700	-19.337	0.099
569.800	-40.070	0.099
569.900	-14.746	0.099
570.000	-22.659	0.099
570.100	-20.113	0.099
570.200	-42.332	0.099
570.300	-14.500	0.099
570.400	-34.750	0.099
570.500	-4.378	0.099
570.600	-4.837	0.099
570.700	-25.903	0.099
570.800	-19.844	0.099
570.900	-32.002	0.099
571.000	-32.309	0.099
571.100	-31.632	0.099
571.200	-22.738	0.099
571.300	-23.424	0.099
571.400	-14.962	0.099
571.500	-23.789	0.099
571.600	-31.593	0.099
571.700	-30.000	0.099
571.800	-26.320	0.099
571.900	-13.933	0.099
572.000	-17.849	0.099
572.100	-35.603	0.099
572.200	-32.126	0.099
572.300	-18.551	0.099
572.400	-32.938	0.099
572.500	-8.645	0.099
572.600	-26.737	0.099
572.700	-20.141	0.099
572.800	-32.750	0.099
572.900	-14.854	0.099
573.000	-26.742	0.099
573.100	-23.006	0.099
573.200	-48.072	0.099
573.300	-8.790	0.099
573.400	-35.223	0.099
573.500	-19.059	0.099
573.600	-17.361	0.099
573.700	-19.010	0.099
573.800	-21.397	0.099
573.900	-47.414	0.099
574.000	-39.362	0.099
574.100	17.510	0.099
574.200	-16.842	0.099
574.300	-28.074	0.099
574.400	-22.826	0.099
574.500	-11.071	0.099
574.600	-35.354	0.099
574.700	-21.933	0.099
574.800	-11.358	0.099
574.900	-26.943	0.099
575.000	-33.259	0.099
575.100	-27.584	0.099
575.200	-22.878	0.099
575.300	-27.179	0.099
575.400	-41.925	0.099
575.500	-11.666	0.099
575.600	-14.807	0.099
575.700	-7.663	0.099
575.800	-12.977	0.099
575.900	-20.959	0.099
576.000	-19.960	0.099
576.100	-6.603	0.099
576.200	-23.575	0.099
576.300	-22.301	0.099
576.400	-28.115	0.099
576.500	-46.096	0.099
576.600	-24.962	0.099
576.700	-22.066	0.099
576.800	-17.922	0.099
576.900	-19.541	0.099
577.000	-43.833	0.099
577.100	-24.182	0.099
577.200	-19.372	0.099
577.300	-33.156	0.099
577.400	7.284	0.099
577.500	-5.226	0.099
577.600	-21.647	0.099
577.700	-17.342	0.099
577.800	-24.143	0.099
577.900	-39.927	0.099
578.000	-31.007	0.099
578.100	-11.679	0.099
578.200	-42.689	0.099
578.300	-8.913	0.099
578.400	-25.150	0.099
578.500	-35.348	0.099
578.600	-35.589	0.099
578.700	-11.405	0.099
578.800	-18.354	0.099
578.900	-47.959	0.099
579.000	5.181	0.099
579.100	-28.342	0.099
579.200	-25.257	0.099
579.300	-20.515	0.099
579.400	-14.835	0.099
579.500	-26.797	0.099
579.600	2.414	0.099
579.700	-29.437	0.099
579.800	-23.307	0.099
579.900	-22.012	0.099
580.000	-8.537	0.099
580.100	-28.513	0.099
580.200	-14.915	0.099
580.300	-19.261	0.099
580.400	-21.405	0.099
580.500	-27.200	0.099
580.600	-30.827	0.099
580.700	-23.953	0.099
580.800	-39.695	0.099
580.900	-20.547	0.099
581.000	-24.443	0.099
581.100	-14.840	0.099
581.200	-19.880	0.099
581.300	-24.367	0.100
581.400	-37.592	0.100
581.500	-12.765	0.100
581.600	-16.334	0.100
581.700	-10.024	0.100
581.800	-37.552	0.100
581.900	-22.581	0.100
582.000	-32.093	0.100
582.100	-19.476	0.100
582.200	-21.292	0.100
582.300	-23.876	0.100
582.400	-31.755	0.100
582.500	-36.407	0.100
582.600	-19.188	0.100
582.700	-14.599	0.100
582.800	-18.190	0.100
582.900	-28.596	0.100
583.000	-25.377	0.100
583.100	-17.691	0.100
583.200	-24.583	0.100
583.300	-16.750	0.100
583.400	-25.671	0.100
583.500	-26.493	0.100
583.600	-17.399	0.100
583.700	-12.035	0.100
583.800	-29.390	0.100
583.900	-17.529	0.100
584.000	-16.472	0.100
584.100	-42.391	0.100
584.200	-21.083	0.100
584.300	-35.092	0.100
584.400	-2.894	0.100
584.500	-7.827	0.100
584.600	-11.869	0.100
584.700	-17.578	0.100
584.800	-40.181	0.100
584.900	-29.186	0.100
585.000	-2.708	0.100
585.100	-14.943	0.100
585.200	-28.798	0.100
585.300	-7.826	0.100
585.400	-28.036	0.100
585.500	-37.107	0.100
585.600	-26.048	0.100
585.700	-9.566	0.100
585.800	-21.849	0.100
585.900	-36.944	0.100
586.000	-0.952	0.100
586.100	-20.341	0.100
586.200	-16.061	0.100
586.300	-23.718	0.100
586.400	-22.834	0.100
586.500	-18.742	0.100
586.600	-21.966	0.100
586.700	-23.473	0.100
586.800	-17.702	0.100
586.900	-35.254	0.100
587.000	-18.976	0.100
587.100	-13.428	0.100
587.200	-17.022	0.100
587.300	-13.617	0.100
587.400	-25.038	0.100
587.500	-32.035	0.100
587.600	-23.228	0.100
587.700	-14.737	0.100
587.800	-30.319	0.100
587.900	-30.223	0.100
588.000	-19.485	0.100
588.100	-36.611	0.100
588.200	-0.483	0.100
588.300	-9.645	0.100
588.400	-12.023	0.100
588.500	-31.864	0.100
588.600	-17.820	0.100
588.700	-36.571	0.100
588.800	-19.128	0.100
588.900	-16.282	0.100
589.000	-35.656	0.100
589.100	-31.540	0.100
589.200	-7.821	0.100
589.300	-5.486	0.100
589.400	-20.013	0.100
589.500	-41.099	0.100
589.600	-18.610	0.100
589.700	-7.608	0.100
589.800	-20.492	0.100
589.900	-15.364	0.100
590.000	-22.976	0.100
590.100	-16.544	0.100
590.200	-20.973	0.100
590.300	-30.973	0.100
590.400	-19.647	0.100
590.500	-22.962	0.100
590.600	-13.080	0.100
590.700	-26.360	0.100
590.800	-21.849	0.100
590.900	-23.862	0.100
591.000	-29.405	0.100
591.100	-26.763	0.100
591.200	-43.903	0.100
591.300	-25.045	0.100
591.400	-14.860	0.100
591.500	-14.450	0.100
591.600	-16.013	0.100
591.700	-14.515	0.100
591.800	-16.298	0.100
591.900	-21.947	0.100
592.000	-20.524	0.100
592.100	-32.440	0.100
592.200	-13.157	0.100
592.300	-24.317	0.100
592.400	-27.770	0.100
592.500	-14.335	0.100
592.600	-25.602	0.100
592.700	-23.721	0.100
592.800	-19.723	0.100
592.900	-17.309	0.100
593.000	-24.779	0.100
593.100	-30.332	0.100
593.200	-22.412	0.100
593.300	-32.526	0.100
593.400	-18.168	0.100
593.500	-19.049	0.100
593.600	-25.692	0.100
593.700	-15.161	0.100
593.800	-26.203	0.100
593.900	-12.852	0.100
594.000	-23.525	0.100
594.100	-25.808	0.100
594.200	-5.049	0.100
594.300	-18.874	0.100
594.400	-41.663	0.100
594.500	-34.748	0.100
594.600	-26.066	0.100
594.700	-21.573	0.100
594.800	-24.134	0.100
594.900	-8.368	0.100
595.000	-22.045	0.100
595.100	-24.439	0.100
595.200	-21.090	0.100
595.300	-25.892	0.100
595.400	-18.533	0.100
595.500	-21.532	0.100
595.600	-5.993	0.100
595.700	-26.621	0.100
595.800	-30.296	0.100
595.900	-30.951	0.100
596.000	-12.108	0.100
596.100	-23.767	0.100
596.200	-2.614	0.100
596.300	-27.054	0.100
596.400	-30.436	0.100
596.500	-9.584	0.100
596.600	-30.628	0.100
596.700	-24.585	0.100
596.800	-15.435	0.100
596.900	-28.769	0.100
597.000	-9.953	0.100
597.100	-17.757	0.100
597.200	-26.172	0.100
597.300	-21.416	0.100
597.400	-19.228	0.100
597.500	-35.177	0.100
597.600	-13.508	0.100
597.700	-6.450	0.100
597.800	-11.404	0.100
597.900	-23.450	0.100
598.000	-32.286	0.100
598.100	-32.291	0.100
598.200	-15.711	0.100
598.300	-18.341	0.100
598.400	-30.714	0.100
598.500	-19.507	0.100
598.600	-25.540	0.100
598.700	-19.812	0.100
598.800	-37.748	0.100
598.900	-21.659	0.100
599.000	-10.699	0.100
599.100	-24.907	0.100
599.200	-10.713	0.100
599.300	-1.359	0.100
599.400	-9.858	0.100
599.500	-47.058	0.100
599.600	-25.435	0.100
599.700	-14.143	0.100
599.800	-8.241	0.100
599.900	-8.285	0.100
600.000	-37.095	0.100
600.100	-45.830	0.100
600.200	-17.910	0.100
600.300	-7.293	0.100
600.400	-37.979	0.100
600.500	-8.046	0.100
600.600	-25.665	0.100
600.700	-33.335	0.100
600.800	-24.360	0.100
600.900	-11.776	0.100
601.000	-10.929	0.100
601.100	-13.918	0.100
601.200	-19.998	0.100
601.300	-15.590	0.100
601.400	-22.949	0.100
601.500	-24.321	0.100
601.600	-42.456	0.100
601.700	-3.968	0.100
601.800	-30.923	0.100
601.900	-17.347	0.100
602.000	-10.462	0.100
602.100	-22.966	0.100
602.200	-27.076	0.100
602.300	-24.983	0.100
602.400	-25.809	0.100
602.500	-27.300	0.100
602.600	-33.125	0.100
602.700	-20.333	0.100
602.800	-28.198	0.100
602.900	-20.227	0.100
603.000	-25.013	0.100
603.100	-10.080	0.100
603.200	-28.247	0.100
603.300	-14.797	0.100
603.400	-9.237	0.100
603.500	-22.140	0.100
603.600	-52.533	0.100
603.700	-23.497	0.100
603.800	-17.926	0.100
603.900	-27.557	0.100
604.000	-22.257	0.100
604.100	-11.556	0.100
604.200	-24.179	0.100
604.300	-19.041	0.100
604.400	-31.809	0.100
604.500	-32.620	0.100
604.600	-25.373	0.100
604.700	-12.189	0.100
604.800	-37.797	0.100
604.900	-23.890	0.100
605.000	-22.582	0.100
605.100	1.689	0.100
605.200	-10.053	0.100
605.300	-18.801	0.100
605.400	-18.333	0.100
605.500	-13.199	0.100
605.600	-32.678	0.100
605.700	-25.655	0.100
605.800	-7.913	0.100
605.900	-29.019	0.100
606.000	-26.178	0.100
606.100	-9.653	0.100
606.200	-17.521	0.100
606.300	-21.452	0.100
606.400	-11.513	0.100
606.500	-24.060	0.100
606.600	-13.280	0.100
606.700	-3.813	0.100
606.800	-4.510	0.100
606.900	-25.933	0.100
607.000	-29.277	0.100
607.100	-13.262	0.100
607.200	-21.125	0.100
607.300	-25.184	0.100
607.400	-14.491	0.100
607.500	-20.447	0.100
607.600	-37.085	0.100
607.700	-16.791	0.100
607.800	-15.083	0.100
607.900	-18.622	0.100
608.000	-19.878	0.100
608.100	-26.750	0.100
608.200	-17.849	0.100
608.300	-24.637	0.100
608.400	-20.715	0.100
608.500	-8.130	0.100
608.600	-14.638	0.100
608.700	-15.868	0.100
608.800	-23.630	0.100
608.900	-17.916	0.100
609.000	-18.211	0.100
609.100	-31.405	0.100
609.200	-23.906	0.100
609.300	-28.157	0.100
609.400	-4.350	0.100
609.500	-22.181	0.100
609.600	-24.264	0.100
609.700	-55.194	0.100
609.800	-12.006	0.100
609.900	-11.914	0.100
610.000	-6.587	0.100
610.100	-12.925	0.100
610.200	-19.042	0.100
610.300	-30.373	0.100
610.400	-15.185	0.100
610.500	-47.421	0.100
610.600	-16.469	0.100
610.700	-24.661	0.100
610.800	-18.096	0.100
610.900	-28.497	0.100
611.000	-10.461	0.100
611.100	-22.862	0.100
611.200	-28.881	0.100
611.300	-33.855	0.100
611.400	-18.638	0.100
611.500	-8.998	0.100
611.600	-30.644	0.100
611.700	-28.270	0.100
611.800	-20.218	0.100
611.900	-8.320	0.100
612.000	-26.355	0.100
612.100	-26.996	0.100
612.200	-20.378	0.100
612.300	-13.889	0.100
612.400	-7.801	0.100
612.500	-18.904	0.100
612.600	-19.442	0.100
612.700	-31.425	0.100
612.800	2.455	0.100
612.900	-19.895	0.100
613.000	-7.014	0.100
613.100	-41.260	0.100
613.200	-20.908	0.100
613.300	-17.730	0.100
613.400	-22.374	0.100
613.500	-7.060	0.100
613.600	-9.371	0.100
613.700	-20.777	0.100
613.800	-15.817	0.100
613.900	-12.523	0.100
614.000	-24.842	0.100
614.100	-15.541	0.100
614.200	-9.923	0.100
614.300	-14.428	0.100
614.400	-29.509	0.100
614.500	-22.359	0.100
614.600	-15.291	0.100
614.700	-22.177	0.100
614.800	-26.439	0.100
614.900	-32.087	0.100
615.000	-1.755	0.100
615.100	-16.548	0.100
615.200	-14.641	0.100
615.300	-23.852	0.100
615.400	-12.651	0.100
615.500	-27.554	0.100
615.600	-7.435	0.100
615.700	-19.948	0.100
615.800	1.289	0.100
615.900	-15.801	0.100
616.000	-42.897	0.100
616.100	-32.921	0.100
616.200	-11.569	0.100
616.300	-24.387	0.100
616.400	-12.479	0.100
616.500	-39.393	0.100
616.600	-13.802	0.100
616.700	-5.706	0.100
616.800	-19.506	0.100
616.900	-32.915	0.100
617.000	-17.692	0.100
617.100	-21.534	0.100
617.200	-1.623	0.100
617.300	-32.242	0.100
617.400	-37.881	0.100
617.500	-13.878	0.100
617.600	-27.337	0.100
617.700	-12.618	0.100
617.800	-29.328	0.100
617.900	-12.133	0.100
618.000	-23.770	0.100
618.100	-14.788	0.100
618.200	-29.202	0.100
618.300	-29.368	0.100
618.400	-12.454	0.100
618.500	-37.871	0.100
618.600	-12.488	0.100
618.700	-22.728	0.100
618.800	-19.967	0.100
618.900	-17.780	0.100
619.000	-39.069	0.100
619.100	-12.805	0.100
619.200	-20.674	0.100
619.300	-24.447	0.100
619.400	-5.870	0.100
619.500	-22.947	0.100
619.600	-0.678	0.100
619.700	-19.874	0.100
619.800	-29.813	0.100
619.900	-21.232	0.100
620.000	-29.949	0.100
620.100	-2.784	0.100
620.200	-2.773	0.100
620.300	-28.666	0.099
620.400	-23.650	0.099
620.500	-20.390	0.099
620.600	-10.688	0.099
620.700	-27.845	0.099
620.800	-21.633	0.099
620.900	-29.615	0.099
621.000	-4.877	0.099
621.100	-8.381	0.099
621.200	-14.293	0.099
621.300	-11.914	0.099
621.400	-18.711	0.099
621.500	-29.476	0.099
621.600	-25.052	0.099
621.700	-20.901	0.099
621.800	-29.374	0.099
621.900	-25.874	0.099
622.000	4.918	0.099
622.100	-1.537	0.099
622.200	-33.218	0.099
622.300	-16.043	0.099
622.400	-12.540	0.099
622.500	-25.455	0.099
622.600	-17.336	0.099
622.700	-34.714	0.099
622.800	0.368	0.099
622.900	-22.293	0.099
623.000	-19.245	0.099
623.100	-9.092	0.099
623.200	-35.577	0.099
623.300	-4.032	0.099
623.400	-18.196	0.099
623.500	-27.171	0.099
623.600	-25.456	0.099
623.700	-28.806	0.099
623.800	-11.994	0.099
623.900	-19.442	0.099
624.000	-11.883	0.099
624.100	-10.097	0.099
624.200	-25.869	0.099
624.300	-25.278	0.099
624.400	-23.552	0.099
624.500	-26.706	0.099
624.600	-6.807	0.099
624.700	-2.983	0.099
624.800	-2.745	0.099
624.900	-29.156	0.099
625.000	-23.751	0.099
625.100	-21.549	0.099
625.200	-4.859	0.099
625.300	-14.589	0.099
625.400	-0.260	0.099
625.500	-19.634	0.099
625.600	-34.026	0.099
625.700	-4.534	0.099
625.800	-30.690	0.099
625.900	-10.587	0.099
626.000	-7.485	0.099
626.100	-20.176	0.099
626.200	-38.092	0.099
626.300	-28.633	0.099
626.400	-17.705	0.099
626.500	-21.605	0.099
626.600	-26.391	0.099
626.700	-3.376	0.099
626.800	0.088	0.099
626.900	-15.332	0.099
627.000	-28.801	0.099
627.100	-21.580	0.099
627.200	-38.146	0.099
627.300	-15.133	0.099
627.400	-4.345	0.099
627.500	-2.928	0.099
627.600	-25.840	0.099
627.700	-31.507	0.099
627.800	-15.502	0.099
627.900	-28.864	0.099
628.000	-5.171	0.099
628.100	-24.056	0.099
628.200	-13.333	0.099
628.300	-12.187	0.099
628.400	-26.748	0.099
628.500	0.378	0.099
628.600	-24.021	0.099
628.700	-28.323	0.099
628.800	-18.114	0.099
628.900	-19.002	0.099
629.000	-19.051	0.099
629.100	-36.574	0.099
629.200	-24.217	0.099
629.300	-12.340	0.099
629.400	-13.622	0.099
629.500	-3.757	0.099
629.600	-38.866	0.099
629.700	-3.561	0.099
629.800	-13.978	0.099
629.900	-17.715	0.099
630.000	-14.327	0.099
630.100	-15.135	0.099
630.200	-9.139	0.099
630.300	-11.481	0.099
630.400	-2.965	0.099
630.500	-9.708	0.099
630.600	16.722	0.099
630.700	-7.608	0.099
630.800	-8.648	0.099
630.900	0.889	0.099
631.000	12.975	0.099
631.100	32.272	0.099
631.200	-19.752	0.099
631.300	9.449	0.099
631.400	-15.978	0.099
631.500	12.129	0.099
631.600	1.034	0.099
631.700	2.288	0.099
631.800	4.254	0.099
631.900	21.037	0.099
632.000	15.428	0.099
632.100	-1.991	0.099
632.200	14.879	0.099
632.300	15.069	0.099
632.400	22.924	0.099
632.500	-9.069	0.099
632.600	6.282	0.099
632.700	19.150	0.099
632.800	16.571	0.099
632.900	-21.863	0.099
633.000	23.550	0.099
633.100	17.635	0.099
633.200	-2.000	0.099
633.300	23.731	0.099
633.400	-0.626	0.099
633.500	17.162	0.099
633.600	-8.726	0.099
633.700	-3.307	0.099
633.800	4.807	0.099
633.900	3.806	0.099
634.000	16.576	0.099
634.100	2.795	0.099
634.200	6.518	0.099
634.300	6.956	0.099
634.400	22.113	0.099
634.500	14.850	0.099
634.600	-2.386	0.099
634.700	-2.802	0.099
634.800	-2.956	0.099
634.900	-6.147	0.099
635.000	8.163	0.099
635.100	13.803	0.099
635.200	24.741	0.099
635.300	4.505	0.099
635.400	10.452	0.099
635.500	-0.916	0.099
635.600	19.638	0.099
635.700	10.305	0.099
635.800	-13.859	0.099
635.900	8.104	0.099
636.000	11.368	0.099
636.100	15.927	0.099
636.200	8.776	0.099
636.300	0.305	0.099
636.400	-7.509	0.099
636.500	6.076	0.099
636.600	11.919	0.099
636.700	7.084	0.099
636.800	-9.155	0.099
636.900	16.986	0.099
637.000	3.862	0.099
637.100	25.435	0.099
637.200	1.909	0.099
637.300	17.749	0.099
637.400	14.306	0.099
637.500	-3.892	0.099
637.600	24.135	0.099
637.700	-3.616	0.099
637.800	23.127	0.099
637.900	-1.251	0.099
638.000	4.050	0.099
638.100	-4.490	0.099
638.200	15.357	0.099
638.300	9.903	0.099
638.400	8.446	0.099
638.500	19.255	0.099
638.600	-0.075	0.099
638.700	-11.255	0.099
638.800	24.108	0.099
638.900	-3.160	0.099
639.000	33.831	0.099
639.100	-10.920	0.099
639.200	9.948	0.099
639.300	24.638	0.099
639.400	18.367	0.099
639.500	11.935	0.099
639.600	16.669	0.099
639.700	13.225	0.099
639.800	25.588	0.100
639.900	18.164	0.100
640.000	30.806	0.100
640.100	12.865	0.099
640.200	1.211	0.100
640.300	-6.576	0.100
640.400	31.614	0.100
640.500	45.042	0.100
640.600	34.191	0.100
640.700	23.636	0.100
640.800	19.287	0.100
640.900	13.482	0.100
641.000	39.585	0.100
641.100	27.065	0.100
641.200	34.403	0.100
641.300	18.393	0.100
641.400	31.293	0.100
641.500	14.335	0.100
641.600	21.641	0.100
641.700	2.494	0.100
641.800	15.481	0.100
641.900	34.579	0.100
642.000	27.641	0.100
642.100	30.869	0.100
642.200	36.340	0.100
642.300	22.706	0.100
642.400	29.188	0.100
642.500	36.374	0.100
642.600	18.385	0.100
642.700	26.215	0.100
642.800	28.026	0.100
642.900	43.924	0.100
643.000	27.843	0.100
643.100	38.700	0.100
643.200	42.719	0.100
643.300	34.868	0.100
643.400	28.184	0.100
643.500	27.722	0.100
643.600	39.669	0.100
643.700	38.052	0.100
643.800	39.350	0.100
643.900	38.529	0.100
644.000	40.437	0.100
644.100	47.651	0.100
644.200	49.335	0.100
644.300	36.293	0.100
644.400	43.559	0.100
644.500	52.247	0.100
644.600	52.830	0.100
644.700	34.741	0.100
644.800	38.389	0.100
644.900	39.693	0.100
645.000	37.417	0.100
645.100	42.642	0.100
645.200	60.956	0.100
645.300	38.694	0.100
645.400	53.370	0.100
645.500	50.461	0.100
645.600	49.821	0.100
645.700	46.912	0.100
645.800	33.469	0.100
645.900	38.575	0.100
646.000	48.291	0.100
646.100	56.645	0.100
646.200	41.509	0.100
646.300	56.677	0.100
646.400	28.503	0.100
646.500	49.562	0.100
646.600	70.429	0.100
646.700	73.922	0.100
646.800	41.860	0.100
646.900	50.306	0.100
647.000	58.146	0.100
647.100	35.994	0.100
647.200	68.531	0.100
647.300	53.103	0.100
647.400	48.230	0.100
647.500	54.344	0.100
647.600	53.598	0.100
647.700	50.930	0.100
647.800	54.930	0.100
647.900	32.079	0.100
648.000	51.972	0.100
648.100	39.397	0.100
648.200	54.774	0.100
648.300	50.843	0.100
648.400	68.083	0.100
648.500	53.042	0.100
648.600	54.542	0.100
648.700	59.362	0.100
648.800	53.939	0.100
648.900	55.032	0.100
649.000	58.816	0.100
649.100	55.344	0.100
649.200	53.224	0.100
649.300	42.227	0.100
649.400	53.185	0.100
649.500	52.727	0.100
649.600	50.417	0.100
649.700	40.454	0.100
649.800	44.340	0.100
649.900	56.374	0.100
650.000	53.798	0.100
650.100	36.104	0.100
650.200	52.931	0.100
650.300	54.873	0.100
650.400	35.463	0.100
650.500	60.604	0.100
650.600	56.979	0.100
650.700	56.321	0.100
650.800	47.626	0.100
650.900	46.174	0.100
651.000	55.724	0.100
651.100	30.070	0.100
651.200	53.985	0.100
651.300	67.069	0.100
651.400	61.533	0.100
651.500	64.304	0.100
651.600	48.005	0.100
651.700	37.580	0.100
651.800	68.411	0.100
651.900	60.867	0.100
652.000	49.231	0.100
652.100	61.540	0.100
652.200	65.023	0.100
652.300	55.398	0.100
652.400	60.232	0.100
652.500	38.936	0.100
652.600	50.271	0.100
652.700	64.737	0.100
652.800	48.249	0.100
652.900	55.899	0.100
653.000	57.808	0.100
653.100	49.190	0.100
653.200	59.635	0.100
653.300	39.749	0.100
653.400	54.967	0.100
653.500	55.518	0.100
653.600	68.961	0.100
653.700	68.784	0.100
653.800	48.195	0.100
653.900	60.201	0.100
654.000	62.052	0.100
654.100	52.365	0.100
654.200	35.460	0.100
654.300	57.509	0.100
654.400	85.820	0.100
654.500	49.489	0.100
654.600	44.830	0.100
654.700	49.365	0.100
654.800	57.252	0.100
654.900	63.219	0.100
655.000	43.216	0.100
655.100	57.340	0.100
655.200	61.046	0.100
655.300	32.198	0.100
655.400	45.764	0.100
655.500	56.591	0.100
655.600	48.029	0.100
655.700	61.927	0.100
655.800	54.113	0.100
655.900	40.248	0.100
656.000	43.958	0.100
656.100	50.889	0.100
656.200	61.563	0.100
656.300	52.040	0.100
656.400	66.009	0.100
656.500	45.772	0.100
656.600	75.140	0.100
656.700	57.209	0.100
656.800	32.795	0.100
656.900	52.546	0.100
657.000	40.351	0.100
657.100	49.419	0.100
657.200	52.725	0.100
657.300	43.645	0.100
657.400	50.301	0.100
657.500	50.769	0.100
657.600	51.437	0.100
657.700	61.049	0.100
657.800	54.657	0.100
657.900	51.610	0.100
658.000	41.517	0.100
658.100	46.198	0.100
658.200	49.692	0.100
658.300	55.681	0.100
658.400	47.382	0.100
658.500	58.626	0.100
658.600	48.996	0.100
658.700	54.980	0.100
658.800	55.532	0.100
658.900	45.508	0.100
659.000	44.129	0.100
659.100	41.863	0.100
659.200	46.285	0.100
659.300	52.150	0.100
659.400	50.171	0.100
659.500	36.225	0.100
659.600	42.284	0.100
659.700	68.292	0.100
659.800	51.643	0.100
659.900	36.444	0.100
660.000	41.894	0.100
660.100	47.103	0.100
660.200	66.282	0.100
660.300	57.361	0.100
660.400	37.916	0.100
660.500	57.223	0.100
660.600	77.178	0.100
660.700	53.145	0.100
660.800	38.247	0.100
660.900	60.623	0.100
661.000	43.213	0.100
661.100	32.765	0.100
661.200	47.264	0.100
661.300	39.560	0.100
661.400	48.686	0.100
661.500	50.667	0.100
661.600	54.918	0.100
661.700	68.047	0.100
661.800	34.879	0.100
661.900	36.129	0.100
662.000	59.289	0.100
662.100	50.696	0.100
662.200	39.704	0.100
662.300	56.893	0.100
662.400	48.504	0.100
662.500	50.920	0.100
662.600	40.415	0.100
662.700	31.000	0.100
662.800	49.300	0.100
662.900	42.899	0.100
663.000	47.756	0.100
663.100	48.088	0.100
663.200	34.943	0.100
663.300	62.652	0.100
663.400	32.163	0.100
663.500	40.346	0.100
663.600	52.539	0.100
663.700	55.206	0.100
663.800	51.732	0.100
663.900	47.155	0.100
664.000	62.926	0.100
664.100	49.748	0.100
664.200	54.040	0.100
664.300	43.738	0.100
664.400	44.339	0.100
664.500	41.914	0.100
664.600	46.266	0.100
664.700	37.420	0.100
664.800	66.398	0.100
664.900	42.953	0.100
665.000	42.830	0.100
665.100	46.147	0.100
665.200	30.568	0.100
665.300	65.083	0.100
665.400	47.776	0.100
665.500	44.014	0.100
665.600	28.474	0.100
665.700	54.460	0.100
665.800	45.508	0.100
665.900	41.372	0.100
666.000	34.328	0.100
666.100	43.880	0.100
666.200	39.533	0.100
666.300	62.359	0.100
666.400	42.120	0.100
666.500	54.497	0.100
666.600	54.955	0.100
666.700	48.824	0.100
666.800	34.622	0.100
666.900	67.788	0.100
667.000	49.304	0.100
667.100	27.056	0.100
667.200	78.056	0.100
667.300	45.484	0.100
667.400	54.755	0.100
667.500	37.542	0.100
667.600	53.481	0.100
667.700	46.890	0.100
667.800	31.912	0.100
667.900	57.452	0.100
668.000	56.960	0.100
668.100	43.499	0.100
668.200	47.059	0.100
668.300	34.374	0.100
668.400	49.495	0.100
668.500	53.547	0.100
668.600	39.176	0.100
668.700	58.293	0.100
668.800	55.713	0.100
668.900	44.766	0.100
669.000	51.805	0.100
669.100	36.362	0.100
669.200	55.819	0.100
669.300	43.874	0.100
669.400	45.790	0.100
669.500	46.124	0.100
669.600	37.157	0.100
669.700	55.229	0.100
669.800	51.773	0.100
669.900	35.647	0.100
670.000	42.884	0.100
670.100	35.148	0.100
670.200	43.041	0.100
670.300	37.411	0.100
670.400	47.248	0.100
670.500	39.624	0.100
670.600	39.574	0.100
670.700	52.794	0.100
670.800	50.004	0.100
670.900	39.638	0.100
671.000	57.004	0.100
671.100	55.957	0.100
671.200	45.620	0.100
671.300	42.052	0.100
671.400	39.257	0.100
671.500	48.387	0.100
671.600	49.344	0.100
671.700	52.682	0.100
671.800	49.363	0.100
671.900	43.620	0.100
672.000	63.329	0.100
672.100	44.174	0.100
672.200	37.128	0.100
672.300	65.087	0.100
672.400	39.207	0.100
672.500	40.212	0.100
672.600	35.917	0.100
672.700	44.983	0.100
672.800	59.648	0.100
672.900	44.376	0.100
673.000	46.467	0.100
673.100	35.632	0.100
673.200	50.193	0.100
673.300	40.582	0.100
673.400	59.334	0.100
673.500	53.322	0.100
673.600	51.112	0.100
673.700	19.898	0.100
673.800	56.142	0.100
673.900	38.734	0.100
674.000	36.501	0.100
674.100	58.500	0.100
674.200	55.014	0.100
674.300	53.589	0.100
674.400	39.388	0.100
674.500	47.725	0.100
674.600	42.712	0.100
674.700	40.349	0.100
674.800	33.966	0.100
674.900	36.461	0.100
675.000	35.517	0.100
675.100	49.303	0.100
675.200	29.174	0.100
675.300	65.131	0.100
675.400	40.404	0.100
675.500	32.306	0.100
675.600	55.012	0.100
675.700	40.306	0.100
675.800	35.493	0.100
675.900	54.197	0.100
676.000	45.776	0.100
676.100	53.130	0.100
676.200	32.801	0.100
676.300	20.302	0.100
676.400	78.134	0.100
676.500	56.604	0.100
676.600	47.105	0.100
676.700	53.619	0.100
676.800	49.390	0.100
676.900	40.305	0.100
677.000	47.815	0.100
677.100	41.898	0.100
677.200	43.529	0.100
677.300	50.967	0.100
677.400	43.320	0.100
677.500	48.025	0.100
677.600	26.599	0.100
677.700	43.712	0.100
677.800	37.193	0.100
677.900	40.380	0.100
678.000	41.528	0.100
678.100	45.880	0.100
678.200	44.269	0.100
678.300	40.591	0.100
678.400	52.815	0.100
678.500	55.899	0.100
678.600	50.892	0.100
678.700	41.757	0.100
678.800	29.506	0.100
678.900	40.780	0.100
679.000	42.633	0.100
679.100	28.911	0.100
679.200	51.631	0.100
679.300	28.986	0.100
679.400	49.863	0.100
679.500	29.825	0.100
679.600	40.494	0.100
679.700	39.705	0.100
679.800	37.345	0.100
679.900	36.000	0.100
680.000	48.113	0.100
680.100	60.958	0.100
680.200	35.063	0.100
680.300	57.608	0.100
680.400	45.921	0.100
680.500	28.884	0.100
680.600	39.550	0.100
680.700	55.629	0.100
680.800	26.875	0.100
680.900	58.353	0.100
681.000	48.277	0.100
681.100	45.552	0.100
681.200	45.374	0.100
681.300	40.174	0.100
681.400	27.830	0.100
681.500	55.327	0.100
681.600	62.218	0.100
681.700	17.461	0.100
681.800	38.767	0.100
681.900	70.658	0.100
682.000	46.936	0.100
682.100	40.220	0.100
682.200	47.212	0.100
682.300	40.571	0.100
682.400	44.576	0.100
682.500	36.747	0.100
682.600	47.649	0.100
682.700	50.290	0.100
682.800	35.758	0.100
682.900	48.827	0.100
683.000	52.708	0.100
683.100	48.015	0.100
683.200	34.553	0.100
683.300	56.364	0.100
683.400	43.795	0.100
683.500	24.026	0.100
683.600	37.912	0.100
683.700	54.648	0.100
683.800	44.414	0.100
683.900	50.741	0.100
684.000	32.794	0.100
684.100	37.524	0.100
684.200	40.369	0.100
684.300	44.790	0.100
684.400	47.683	0.100
684.500	47.618	0.100
684.600	45.462	0.100
684.700	48.891	0.100
684.800	38.820	0.100
684.900	36.998	0.100
685.000	27.819	0.100
685.100	41.960	0.100
685.200	26.007	0.100
685.300	43.929	0.100
685.400	46.112	0.100
685.500	41.961	0.100
685.600	43.497	0.100
685.700	34.966	0.100
685.800	43.256	0.100
685.900	35.751	0.100
686.000	50.039	0.100
686.100	52.688	0.100
686.200	45.677	0.100
686.300	55.200	0.100
686.400	39.925	0.100
686.500	43.876	0.100
686.600	42.204	0.100
686.700	35.510	0.100
686.800	45.974	0.100
686.900	30.130	0.100
687.000	37.523	0.100
687.100	36.091	0.100
687.200	37.489	0.100
687.300	60.034	0.100
687.400	36.534	0.100
687.500	22.742	0.100
687.600	48.132	0.100
687.700	40.064	0.100
687.800	45.120	0.100
687.900	58.389	0.100
688.000	58.225	0.100
688.100	39.065	0.100
688.200	51.381	0.100
688.300	38.831	0.100
688.400	49.233	0.100
688.500	60.258	0.100
688.600	49.597	0.100
688.700	39.104	0.100
688.800	28.575	0.100
688.900	41.308	0.100
689.000	46.821	0.100
689.100	40.136	0.100
689.200	32.570	0.100
689.300	52.814	0.100
689.400	44.293	0.100
689.500	40.198	0.100
689.600	44.348	0.100
689.700	38.551	0.100
689.800	56.685	0.100
689.900	55.041	0.100
690.000	31.595	0.100
690.100	37.894	0.100
690.200	29.554	0.100
690.300	52.927	0.100
690.400	20.058	0.100
690.500	20.494	0.100
690.600	17.613	0.100
690.700	6.376	0.100
690.800	44.743	0.100
690.900	9.199	0.100
691.000	5.662	0.100
691.100	23.894	0.100
691.200	17.764	0.100
691.300	5.829	0.100
691.400	20.771	0.100
691.500	-2.923	0.100
691.600	6.385	0.100
691.700	-4.878	0.100
691.800	7.915	0.100
691.900	-12.421	0.100
692.000	-4.634	0.100
692.100	3.563	0.100
692.200	-0.462	0.100
692.300	0.598	0.100
692.400	-2.570	0.100
692.500	-0.815	0.100
692.600	-2.581	0.100
692.700	-12.369	0.100
692.800	-11.267	0.100
692.900	2.831	0.100
693.000	-4.847	0.100
693.100	-23.338	0.100
693.200	-0.368	0.100
693.300	-21.330	0.100
693.400	3.701	0.100
693.500	4.729	0.100
693.600	4.595	0.100
693.700	-37.501	0.100
693.800	-3.446	0.100
693.900	-19.999	0.100
694.000	-13.798	0.100
694.100	-24.200	0.100
694.200	-3.478	0.100
694.300	-10.310	0.100
694.400	-4.616	0.100
694.500	-14.361	0.100
694.600	-15.344	0.100
694.700	-18.052	0.100
694.800	-8.253	0.100
694.900	-22.420	0.100
695.000	-42.981	0.100
695.100	-9.078	0.100
695.200	-18.425	0.100
695.300	-3.983	0.100
695.400	-20.476	0.100
695.500	-16.051	0.100
695.600	-6.421	0.100
695.700	-13.035	0.100
695.800	-7.028	0.100
695.900	-7.835	0.100
696.000	-15.865	0.100
696.100	-27.457	0.100
696.200	-3.066	0.100
696.300	-14.146	0.100
696.400	-10.964	0.100
696.500	-12.216	0.100
696.600	-16.832	0.100
696.700	-11.194	0.100
696.800	-13.388	0.100
696.900	-26.773	0.100
697.000	-2.661	0.100
697.100	-7.048	0.100
697.200	-10.065	0.100
697.300	-13.153	0.100
697.400	-7.836	0.100
697.500	-20.053	0.100
697.600	-5.371	0.100
697.700	-16.798	0.100
697.800	-17.244	0.100
697.900	-10.907	0.100
698.000	-6.274	0.100
698.100	-16.233	0.100
698.200	-25.462	0.100
698.300	-17.414	0.100
698.400	-31.447	0.100
698.500	-6.621	0.100
698.600	-21.968	0.100
698.700	-16.759	0.100
698.800	10.722	0.100
698.900	5.023	0.100
699.000	-30.528	0.100
699.100	-4.064	0.100
699.200	-6.480	0.100
699.300	-19.598	0.100
699.400	-17.851	0.100
699.500	-25.189	0.100
699.600	-2.497	0.100
699.700	-22.334	0.100
699.800	-19.502	0.100
699.900	-7.109	0.100
700.000	-19.526	0.100
700.100	-2.085	0.100
700.200	-0.281	0.100
700.300	-6.580	0.100
700.400	-10.796	0.100
700.500	-25.221	0.100
700.600	-8.418	0.100
700.700	-3.814	0.100
700.800	-24.370	0.100
700.900	-6.093	0.100
701.000	-7.744	0.100
701.100	-16.849	0.100
701.200	-18.518	0.100
701.300	-19.473	0.100
701.400	-26.743	0.100
701.500	-2.831	0.100
701.600	-14.708	0.100
701.700	-16.670	0.100
701.800	-16.739	0.100
701.900	-11.732	0.100
702.000	1.156	0.100
702.100	-9.110	0.100
702.200	-27.285	0.100
702.300	-6.213	0.100
702.400	-5.597	0.100
702.500	-16.120	0.100
702.600	-11.601	0.100
702.700	-9.440	0.100
702.800	-17.068	0.100
702.900	-3.621	0.100
703.000	-33.316	0.100
703.100	-9.095	0.100
703.200	-12.597	0.100
703.300	-21.325	0.100
703.400	-10.770	0.100
703.500	-15.919	0.100
703.600	-3.678	0.100
703.700	-1.415	0.100
703.800	-12.419	0.100
703.900	-18.410	0.100
704.000	-1.172	0.100
704.100	-12.113	0.100
704.200	-6.719	0.100
704.300	-17.479	0.100
704.400	-12.269	0.100
704.500	-2.515	0.100
704.600	-22.194	0.100
704.700	-6.194	0.100
704.800	-4.218	0.100
704.900	-28.651	0.100
705.000	-21.482	0.100
705.100	-2.712	0.100
705.200	-25.831	0.100
705.300	-27.868	0.100
705.400	-5.035	0.100
705.500	0.473	0.100
705.600	-25.662	0.100
705.700	-9.890	0.100
705.800	-8.785	0.100
705.900	-26.487	0.100
706.000	2.120	0.100
706.100	-11.342	0.100
706.200	-22.472	0.100
706.300	-18.051	0.100
706.400	-7.192	0.100
706.500	-16.776	0.100
706.600	-21.322	0.100
706.700	-3.769	0.100
706.800	-32.638	0.100
706.900	-8.576	0.100
707.000	-10.924	0.100
707.100	-14.897	0.100
707.200	-9.906	0.100
707.300	-26.743	0.100
707.400	-16.738	0.100
707.500	-48.547	0.100
707.600	-2.281	0.100
707.700	-4.140	0.100
707.800	-32.184	0.100
707.900	-3.240	0.100
708.000	1.568	0.100
708.100	-28.842	0.100
708.200	-14.625	0.100
708.300	-24.131	0.100
708.400	-16.541	0.100
708.500	-18.892	0.100
708.600	-27.485	0.100
708.700	-26.450	0.100
708.800	-15.575	0.100
708.900	-6.772	0.100
709.000	-6.213	0.100
709.100	-19.114	0.100
709.200	-24.072	0.100
709.300	-14.611	0.100
709.400	-29.674	0.100
709.500	-29.940	0.100
709.600	-3.348	0.100
709.700	-14.641	0.100
709.800	-22.470	0.100
709.900	-36.834	0.100
710.000	-24.073	0.100
710.100	-12.444	0.100
710.200	-13.199	0.100
710.300	-37.561	0.100
710.400	-10.216	0.100
710.500	-29.302	0.100
710.600	5.568	0.100
710.700	-8.702	0.100
710.800	-10.445	0.100
710.900	-28.216	0.100
711.000	-12.834	0.100
711.100	-35.540	0.100
711.200	-22.510	0.100
711.300	-19.346	0.100
711.400	-17.836	0.100
711.500	-16.546	0.100
711.600	-19.635	0.100
711.700	-17.105	0.100
711.800	-35.009	0.100
711.900	-3.794	0.100
712.000	-23.285	0.100
712.100	-35.056	0.100
712.200	-22.172	0.100
712.300	-18.228	0.100
712.400	-11.155	0.100
712.500	-31.260	0.100
712.600	-33.939	0.100
712.700	-15.984	0.100
712.800	-19.372	0.100
712.900	-14.121	0.100
713.000	-23.114	0.100
713.100	-28.577	0.100
713.200	-17.562	0.100
713.300	-25.445	0.100
713.400	-35.876	0.100
713.500	-27.945	0.100
713.600	-25.121	0.100
713.700	-21.133	0.100
713.800	-12.397	0.100
713.900	-24.734	0.100
714.000	-31.062	0.100
714.100	-26.204	0.100
714.200	-15.501	0.100
714.300	-34.460	0.100
714.400	-23.043	0.100
714.500	-24.269	0.100
714.600	-10.299	0.100
714.700	-21.460	0.100
714.800	-24.158	0.100
714.900	-27.761	0.100
715.000	-17.176	0.100
715.100	-27.586	0.100
715.200	-22.087	0.100
715.300	-22.505	0.100
715.400	-30.989	0.100
715.500	-8.333	0.100
715.600	-24.445	0.100
715.700	-41.479	0.100
715.800	-16.408	0.100
715.900	-15.021	0.100
716.000	-10.948	0.100
716.100	-14.746	0.100
716.200	-17.851	0.100
716.300	-16.537	0.100
716.400	-2.710	0.100
716.500	-17.627	0.100
716.600	-1.747	0.100
716.700	-30.731	0.100
716.800	-26.230	0.100
716.900	-26.761	0.100
717.000	-42.529	0.100
717.100	-22.150	0.100
717.200	-1.430	0.100
717.300	-36.534	0.100
717.400	-31.725	0.100
717.500	-18.580	0.100
717.600	-8.459	0.100
717.700	-5.644	0.100
717.800	-23.362	0.100
717.900	-25.972	0.100
718.000	-30.607	0.100
718.100	-21.884	0.100
718.200	-27.637	0.100
718.300	-18.753	0.100
718.400	-16.073	0.100
718.500	-11.106	0.100
718.600	-29.408	0.100
718.700	-33.792	0.100
718.800	-29.286	0.100
718.900	-13.651	0.100
719.000	-3.581	0.100
719.100	-3.605	0.100
719.200	-33.451	0.100
719.300	-16.233	0.100
719.400	-29.682	0.100
719.500	-39.503	0.100
719.600	-16.014	0.100
719.700	-30.525	0.100
719.800	-28.679	0.100
719.900	-17.913	0.100
720.000	-2.299	0.100
720.100	-27.886	0.100
720.200	-23.835	0.100
720.300	-12.487	0.100
720.400	-17.787	0.100
720.500	-18.349	0.100
720.600	-29.580	0.100
720.700	-15.447	0.100
720.800	-13.952	0.100
720.900	-36.076	0.100
721.000	-30.123	0.100
721.100	-21.036	0.100
721.200	-36.693	0.100
721.300	-18.912	0.100
721.400	-18.663	0.100
721.500	-19.946	0.100
721.600	-14.272	0.100
721.700	-16.473	0.100
721.800	-31.796	0.100
721.900	-29.870	0.100
722.000	-41.829	0.100
722.100	-2.359	0.100
722.200	-21.163	0.100
722.300	-31.485	0.100
722.400	-36.059	0.100
722.500	-28.906	0.100
722.600	-31.629	0.100
722.700	-13.261	0.100
722.800	-26.630	0.100
722.900	-24.487	0.100
723.000	-17.704	0.100
723.100	-28.886	0.100
723.200	-37.204	0.100
723.300	-8.238	0.100
723.400	-20.164	0.100
723.500	-43.840	0.100
723.600	-28.272	0.100
723.700	-15.856	0.100
723.800	-27.953	0.100
723.900	-14.571	0.100
724.000	-21.878	0.100
724.100	-24.781	0.100
724.200	-19.673	0.100
724.300	-26.782	0.100
724.400	-39.466	0.100
724.500	-27.501	0.100
724.600	-8.613	0.100
724.700	-25.929	0.100
724.800	-23.725	0.100
724.900	-27.157	0.100
725.000	-29.314	0.100
725.100	-22.941	0.100
725.200	-13.856	0.100
725.300	-17.748	0.100
725.400	-25.319	0.100
725.500	-20.437	0.100
725.600	-15.153	0.100
725.700	-36.340	0.100
725.800	-13.278	0.100
725.900	-14.709	0.100
726.000	-28.576	0.100
726.100	-26.868	0.100
726.200	-8.259	0.100
726.300	-11.831	0.100
726.400	-44.877	0.100
726.500	-14.526	0.100
726.600	-15.819	0.100
726.700	-23.940	0.100
726.800	-30.771	0.100
726.900	-12.741	0.100
727.000	-29.160	0.100
727.100	-23.750	0.100
727.200	-22.109	0.100
727.300	-34.652	0.100
727.400	-23.425	0.100
727.500	-20.031	0.100
727.600	-9.339	0.100
727.700	-30.593	0.100
727.800	-24.417	0.100
727.900	-11.773	0.100
728.000	-27.152	0.100
728.100	-31.874	0.100
728.200	-22.385	0.100
728.300	-33.112	0.100
728.400	-30.224	0.100
728.500	-12.384	0.100
728.600	-29.039	0.100
728.700	-31.653	0.100
728.800	-20.201	0.100
728.900	-34.458	0.100
729.000	-8.335	0.100
729.100	-14.584	0.100
729.200	-23.490	0.100
729.300	-17.165	0.100
729.400	-36.263	0.100
729.500	-29.001	0.100
729.600	-16.137	0.100
729.700	-26.727	0.100
729.800	-28.626	0.100
729.900	-5.897	0.100
730.000	-21.530	0.100
730.100	-24.832	0.100
730.200	-40.538	0.100
730.300	-6.630	0.100
730.400	-12.691	0.100
730.500	-24.028	0.100
730.600	-20.206	0.100
730.700	-25.332	0.100
730.800	-38.723	0.100
730.900	-25.278	0.100
731.000	-17.836	0.100
731.100	-31.826	0.100
731.200	-14.693	0.100
731.300	-4.003	0.100
731.400	-10.348	0.100
731.500	-48.092	0.100
731.600	-7.550	0.100
731.700	-32.935	0.100
731.800	-24.520	0.100
731.900	-15.711	0.100
732.000	-32.647	0.100
732.100	-13.866	0.100
732.200	-25.372	0.100
732.300	-21.704	0.100
732.400	-16.895	0.100
732.500	-26.848	0.100
732.600	-16.357	0.100
732.700	-24.774	0.100
732.800	-27.077	0.100
732.900	-14.755	0.100
733.000	-27.984	0.100
733.100	-32.881	0.100
733.200	-27.301	0.100
733.300	-28.691	0.100
733.400	-17.698	0.100
733.500	-15.824	0.100
733.600	-21.996	0.100
733.700	-27.557	0.100
733.800	-29.075	0.100
733.900	-29.729	0.100
734.000	-17.455	0.100
734.100	-12.511	0.100
734.200	-8.826	0.100
734.300	-23.819	0.100
734.400	-28.435	0.100
734.500	-15.395	0.100
734.600	-28.377	0.100
734.700	-22.198	0.100
734.800	-1.685	0.100
734.900	-18.441	0.100
735.000	-23.532	0.100
735.100	-16.603	0.100
735.200	-37.333	0.100
735.300	-9.652	0.100
735.400	-33.215	0.100
735.500	-32.111	0.100
735.600	-22.495	0.100
735.700	-37.246	0.100
735.800	-28.910	0.100
735.900	-14.161	0.100
736.000	-11.030	0.100
736.100	-16.005	0.100
736.200	-15.750	0.100
736.300	-22.539	0.100
736.400	-34.927	0.100
736.500	-16.855	0.100
736.600	-44.626	0.100
736.700	-32.511	0.100
736.800	-9.828	0.100
736.900	-31.298	0.100
737.000	2.334	0.100
737.100	-30.700	0.100
737.200	-28.973	0.100
737.300	-18.263	0.100
737.400	-27.787	0.100
737.500	-27.030	0.100
737.600	-23.058	0.100
737.700	-32.539	0.100
737.800	-7.501	0.100
737.900	-30.065	0.100
738.000	-27.471	0.100
738.100	-12.626	0.100
738.200	-14.153	0.100
738.300	-18.408	0.100
738.400	-20.165	0.100
738.500	-32.735	0.100
738.600	-32.882	0.100
738.700	-25.233	0.100
738.800	-13.920	0.100
738.900	-23.034	0.100
739.000	-20.598	0.100
739.100	-33.235	0.100
739.200	-20.486	0.100
739.300	-29.417	0.100
739.400	-17.028	0.100
739.500	-24.524	0.100
739.600	-24.105	0.100
739.700	-20.814	0.100
739.800	-18.038	0.100
739.900	-29.888	0.100
740.000	-14.252	0.100
740.100	-41.102	0.100
740.200	-31.027	0.100
740.300	-17.859	0.100
740.400	-32.391	0.100
740.500	-19.353	0.100
740.600	-26.104	0.100
740.700	-22.016	0.100
740.800	-25.138	0.100
740.900	-31.170	0.100
741.000	-30.567	0.100
741.100	-24.022	0.100
741.200	-28.915	0.100
741.300	-25.315	0.100
741.400	-27.352	0.100
741.500	-20.096	0.100
741.600	-15.458	0.100
741.700	-26.305	0.100
741.800	-14.121	0.100
741.900	-22.070	0.100
742.000	-29.242	0.100
742.100	-19.331	0.100
742.200	-18.165	0.100
742.300	-28.671	0.100
742.400	-20.815	0.100
742.500	-15.831	0.100
742.600	-18.718	0.100
742.700	-33.054	0.100
742.800	-21.115	0.100
742.900	-31.565	0.100
743.000	-15.961	0.100
743.100	-9.993	0.100
743.200	-30.149	0.100
743.300	-13.581	0.100
743.400	-31.481	0.100
743.500	-43.592	0.100
743.600	-14.881	0.100
743.700	-12.683	0.100
743.800	-25.439	0.100
743.900	-8.282	0.100
744.000	-27.294	0.100
744.100	-25.227	0.100
744.200	-18.964	0.100
744.300	-19.891	0.100
744.400	-45.778	0.100
744.500	-18.574	0.100
744.600	-16.504	0.100
744.700	-27.933	0.100
744.800	-23.287	0.100
744.900	-15.105	0.100
745.000	-24.306	0.100
745.100	-5.883	0.100
745.200	-3.445	0.100
745.300	-18.866	0.100
745.400	-22.324	0.100
745.500	-37.254	0.100
745.600	-28.477	0.100
745.700	-24.320	0.100
745.800	-12.418	0.100
745.900	-15.598	0.100
746.000	-31.470	0.100
746.100	-7.038	0.100
746.200	-50.744	0.100
746.300	-24.259	0.100
746.400	5.598	0.100
746.500	-7.154	0.100
746.600	-15.451	0.100
746.700	-26.656	0.100
746.800	-38.330	0.100
746.900	-23.286	0.100
747.000	-25.412	0.100
747.100	-24.498	0.100
747.200	-19.588	0.100
747.300	-28.124	0.100
747.400	-27.621	0.100
747.500	-29.490	0.100
747.600	-18.942	0.100
747.700	-21.587	0.100
747.800	-36.739	0.100
747.900	-35.420	0.100
748.000	-18.335	0.100
748.100	-26.048	0.100
748.200	-17.757	0.100
748.300	-30.487	0.100
748.400	-24.201	0.100
748.500	-19.867	0.100
748.600	-39.186	0.100
748.700	-21.541	0.100
748.800	-23.478	0.100
748.900	-24.880	0.100
749.000	-19.477	0.100
749.100	-27.074	0.100
749.200	-14.513	0.100
749.300	-19.301	0.100
749.400	-15.457	0.100
749.500	-6.215	0.100
749.600	-15.444	0.100
749.700	-44.853	0.100
749.800	-21.400	0.100
749.900	-20.976	0.100
750.000	-15.038	0.100
750.100	-10.768	0.100
750.200	-22.167	0.100
750.300	-26.465	0.100
750.400	-19.438	0.100
750.500	-18.288	0.100
750.600	-16.860	0.100
750.700	-19.095	0.100
750.800	-32.740	0.100
750.900	-34.240	0.100
751.000	-20.935	0.100
751.100	-4.134	0.100
751.200	-16.934	0.100
751.300	-31.821	0.100
751.400	-37.001	0.100
751.500	-6.746	0.100
751.600	-24.392	0.100
751.700	-16.669	0.100
751.800	-22.390	0.100
751.900	-8.966	0.100
752.000	-25.871	0.100
752.100	-33.052	0.100
752.200	-23.474	0.100
752.300	-20.381	0.100
752.400	-12.113	0.100
752.500	-16.264	0.100
752.600	-15.658	0.100
752.700	-24.165	0.100
752.800	-8.573	0.100
752.900	-8.520	0.100
753.000	-31.318	0.100
753.100	-19.966	0.100
753.200	-15.135	0.100
753.300	-30.247	0.100
753.400	-35.172	0.100
753.500	-5.386	0.100
753.600	-12.996	0.100
753.700	-8.926	0.100
753.800	-23.177	0.100
753.900	-23.300	0.100
754.000	-38.818	0.100
754.100	-37.721	0.100
754.200	-19.302	0.100
754.300	-36.510	0.100
754.400	-13.521	0.100
754.500	-16.396	0.100
754.600	-31.823	0.100
754.700	-20.709	0.100
754.800	-25.781	0.100
754.900	-15.166	0.100
755.000	-14.039	0.100
755.100	-16.033	0.100
755.200	-25.066	0.100
755.300	-21.353	0.100
755.400	-6.188	0.100
755.500	-30.313	0.100
755.600	-18.694	0.100
755.700	-17.934	0.100
755.800	-13.039	0.100
755.900	-22.784	0.100
756.000	-45.854	0.100
756.100	-20.359	0.100
756.200	-9.357	0.100
756.300	-17.892	0.100
756.400	-22.814	0.100
756.500	-31.967	0.100
756.600	-25.218	0.100
756.700	-10.425	0.100
756.800	-28.761	0.100
756.900	-20.558	0.100
757.000	-15.827	0.100
757.100	-23.879	0.100
757.200	-20.195	0.100
757.300	-32.750	0.100
757.400	-21.912	0.100
757.500	-10.383	0.100
757.600	-33.388	0.100
757.700	-6.893	0.100
757.800	-12.879	0.100
757.900	-26.886	0.100
758.000	-24.178	0.100
758.100	-27.725	0.100
758.200	-15.096	0.100
758.300	-23.322	0.100
758.400	-18.192	0.100
758.500	-19.129	0.100
758.600	-34.590	0.100
758.700	-45.178	0.100
758.800	-39.876	0.100
758.900	-3.112	0.100
759.000	-18.916	0.100
759.100	-22.627	0.100
759.200	3.548	0.100
759.300	-24.527	0.100
759.400	-21.927	0.100
759.500	-30.740	0.100
759.600	-20.914	0.100
759.700	-14.212	0.100
759.800	-23.789	0.100
759.900	-22.267	0.100
760.000	-15.222	0.100
760.100	-18.991	0.100
760.200	-27.282	0.100
760.300	-14.864	0.100
760.400	-26.427	0.100
760.500	-3.510	0.100
760.600	-31.554	0.100
760.700	-22.654	0.100
760.800	-20.012	0.100
760.900	-40.966	0.100
761.000	-17.607	0.100
761.100	-2.445	0.100
761.200	-24.789	0.100
761.300	-33.634	0.100
761.400	-7.866	0.100
761.500	-14.019	0.100
761.600	-36.148	0.100
761.700	-17.219	0.100
761.800	-5.664	0.100
761.900	-24.678	0.100
762.000	-20.848	0.100
762.100	-19.837	0.100
762.200	-21.792	0.100
762.300	-26.308	0.100
762.400	-26.413	0.100
762.500	-36.578	0.100
762.600	-34.118	0.100
762.700	-1.214	0.100
762.800	-45.162	0.100
762.900	-6.342	0.100
763.000	-20.629	0.100
763.100	-15.991	0.100
763.200	-46.232	0.100
763.300	-16.025	0.100
763.400	-22.926	0.100
763.500	-9.232	0.100
763.600	-23.005	0.100
763.700	-17.980	0.100
763.800	-18.437	0.100
763.900	-5.814	0.100
764.000	-14.889	0.100
764.100	-18.726	0.100
764.200	-36.044	0.100
764.300	-23.818	0.100
764.400	-31.969	0.100
764.500	-5.945	0.100
764.600	-23.621	0.100
764.700	-42.101	0.100
764.800	-15.307	0.100
764.900	-29.304	0.100
765.000	-29.338	0.100
765.100	-25.408	0.100
765.200	-14.535	0.100
765.300	-37.020	0.100
765.400	-29.721	0.100
765.500	-19.831	0.100
765.600	-10.806	0.100
765.700	-46.046	0.100
765.800	-5.042	0.100
765.900	-18.179	0.100
766.000	-27.216	0.100
766.100	-33.105	0.100
766.200	-15.714	0.100
766.300	-7.331	0.100
766.400	-26.374	0.100
766.500	-32.075	0.100
766.600	-30.396	0.100
766.700	-15.748	0.100
766.800	-25.926	0.100
766.900	-2.140	0.100
767.000	-24.818	0.100
767.100	-29.131	0.100
767.200	-15.353	0.100
767.300	-24.748	0.100
767.400	-22.467	0.100
767.500	-25.646	0.100
767.600	-7.164	0.100
767.700	-27.896	0.100
767.800	-25.029	0.100
767.900	-14.788	0.100
768.000	-32.740	0.100
768.100	-21.648	0.100
768.200	-16.493	0.100
768.300	-48.177	0.100
768.400	-25.636	0.100
768.500	-22.518	0.100
768.600	-36.560	0.100
768.700	2.741	0.100
768.800	-7.880	0.100
768.900	-21.322	0.100
769.000	-38.627	0.100
769.100	-25.046	0.100
769.200	-29.171	0.100
769.300	-20.139	0.100
769.400	17.498	0.100
769.500	-11.296	0.100
769.600	-21.793	0.100
769.700	-31.047	0.100
769.800	-25.525	0.100
769.900	-26.789	0.100
770.000	-1.855	0.100
770.100	-5.353	0.100
770.200	-18.638	0.100
770.300	-23.526	0.100
770.400	-29.022	0.100
770.500	-19.542	0.100
770.600	-23.542	0.100
770.700	-0.327	0.100
770.800	-9.044	0.100
770.900	-17.585	0.100
771.000	-21.131	0.100
771.100	-24.382	0.099
771.200	-17.320	0.100
771.300	-8.307	0.100
771.400	-16.378	0.100
771.500	-24.420	0.100
771.600	-25.810	0.100
771.700	-27.306	0.100
771.800	-24.261	0.100
771.900	-21.533	0.100
772.000	-5.065	0.100
772.100	-29.288	0.100
772.200	-26.177	0.100
772.300	-16.473	0.100
772.400	-26.679	0.100
772.500	-27.826	0.100
772.600	-30.922	0.100
772.700	-9.146	0.100
772.800	-20.379	0.100
772.900	-23.135	0.100
773.000	-16.303	0.100
773.100	-14.874	0.100
773.200	-12.268	0.100
773.300	-21.996	0.100
773.400	-10.343	0.100
773.500	-48.093	0.100
773.600	4.046	0.100
773.700	-11.295	0.100
773.800	-25.454	0.100
773.900	-30.993	0.100
774.000	-31.697	0.100
774.100	-15.352	0.100
774.200	-26.205	0.100
774.300	-10.663	0.100
774.400	-17.402	0.100
774.500	-31.890	0.100
774.600	-18.157	0.100
774.700	-3.120	0.100
774.800	-20.861	0.100
774.900	-18.173	0.100
775.000	-29.075	0.100
775.100	-26.734	0.100
775.200	-1.917	0.100
775.300	-25.582	0.100
775.400	-23.395	0.100
775.500	-14.735	0.100
775.600	-4.610	0.100
775.700	-27.743	0.100
775.800	-31.589	0.100
775.900	-28.888	0.100
776.000	-8.248	0.100
776.100	-21.403	0.100
776.200	-28.209	0.100
776.300	-19.472	0.100
776.400	1.417	0.100
776.500	-10.432	0.100
776.600	-35.845	0.100
776.700	-23.521	0.100
776.800	-16.221	0.100
776.900	-29.325	0.100
777.000	-16.231	0.100
777.100	-2.327	0.100
777.200	-32.719	0.100
777.300	-15.494	0.100
777.400	-13.395	0.100
777.500	-8.586	0.100
777.600	-25.413	0.100
777.700	-26.398	0.100
777.800	-19.684	0.100
777.900	-13.932	0.100
778.000	-31.182	0.100
778.100	-27.304	0.100
778.200	-19.886	0.100
778.300	-7.545	0.100
778.400	-30.575	0.100
778.500	5.277	0.100
778.600	-28.741	0.100
778.700	-30.432	0.100
778.800	-10.202	0.100
778.900	-28.561	0.099
779.000	-15.860	0.100
779.100	-10.440	0.100
779.200	-20.622	0.100
779.300	-22.248	0.100
779.400	-11.008	0.100
779.500	-15.179	0.100
779.600	-13.529	0.100
779.700	-4.050	0.100
779.800	-14.975	0.100
779.900	-27.410	0.100
780.000	-32.917	0.100
780.100	-10.621	0.100
780.200	-5.093	0.100
780.300	-16.418	0.100
780.400	0.138	0.100
780.500	2.040	0.100
780.600	-4.139	0.100
780.700	19.393	0.100
780.800	-10.425	0.100
780.900	-3.846	0.100
781.000	7.148	0.100
781.100	13.868	0.100
781.200	20.847	0.100
781.300	-14.054	0.100
781.400	10.313	0.100
781.500	11.333	0.100
781.600	2.327	0.100
781.700	-3.211	0.100
781.800	5.407	0.100
781.900	12.997	0.100
782.000	8.123	0.100
782.100	1.765	0.100
782.200	9.911	0.100
782.300	-7.174	0.100
782.400	25.843	0.100
782.500	-6.906	0.100
782.600	15.825	0.100
782.700	19.224	0.100
782.800	-14.763	0.100
782.900	-1.272	0.100
783.000	20.282	0.100
783.100	-3.351	0.100
783.200	1.932	0.100
783.300	35.866	0.100
783.400	23.444	0.100
783.500	-7.438	0.100
783.600	-9.689	0.100
783.700	29.835	0.100
783.800	10.890	0.100
783.900	9.329	0.100
784.000	8.327	0.100
784.100	26.499	0.100
784.200	6.885	0.100
784.300	11.625	0.100
784.400	14.730	0.100
784.500	10.009	0.100
784.600	26.816	0.100
784.700	-3.348	0.100
784.800	-3.931	0.100
784.900	-6.179	0.100
785.000	2.341	0.100
785.100	26.148	0.100
785.200	-3.186	0.100
785.300	14.271	0.100
785.400	-8.388	0.100
785.500	20.698	0.100
785.600	12.766	0.100
785.700	-6.734	0.100
785.800	-0.233	0.100
785.900	-11.298	0.100
786.000	19.663	0.100
786.100	-3.906	0.100
786.200	20.798	0.100
786.300	2.649	0.100
786.400	10.828	0.100
786.500	13.653	0.100
786.600	9.952	0.100
786.700	9.289	0.100
786.800	30.377	0.100
786.900	-1.086	0.100
787.000	9.225	0.100
787.100	-0.475	0.100
787.200	7.294	0.100
787.300	6.499	0.100
787.400	5.610	0.100
787.500	7.818	0.100
787.600	29.749	0.100
787.700	0.710	0.100
787.800	7.638	0.100
787.900	27.705	0.100
788.000	-5.442	0.100
788.100	7.903	0.100
788.200	17.646	0.100
788.300	19.823	0.100
788.400	15.173	0.100
788.500	22.212	0.100
788.600	4.139	0.100
788.700	7.887	0.100
788.800	11.779	0.100
788.900	20.756	0.100
789.000	2.014	0.100
789.100	28.149	0.100
789.200	12.647	0.100
789.300	15.788	0.100
789.400	6.326	0.100
789.500	0.116	0.100
789.600	26.763	0.100
789.700	11.410	0.100
789.800	18.026	0.100
789.900	2.244	0.100
790.000	3.048	0.100
790.100	18.301	0.100
790.200	18.986	0.100
790.300	15.549	0.100
790.400	22.549	0.100
790.500	21.959	0.100
790.600	22.891	0.100
790.700	20.673	0.100
790.800	16.404	0.100
790.900	27.339	0.100
791.000	28.257	0.100
791.100	28.308	0.100
791.200	15.047	0.100
791.300	25.481	0.100
791.400	21.443	0.100
791.500	14.843	0.100
791.600	29.974	0.100
791.700	23.983	0.100
791.800	17.621	0.100
791.900	41.493	0.100
792.000	22.559	0.100
792.100	30.483	0.100
792.200	52.425	0.100
792.300	43.235	0.100
792.400	10.147	0.100
792.500	48.985	0.100
792.600	53.990	0.100
792.700	31.609	0.100
792.800	47.962	0.100
792.900	24.938	0.100
793.000	26.491	0.100
793.100	37.997	0.100
793.200	19.364	0.100
793.300	26.319	0.100
793.400	26.439	0.100
793.500	48.374	0.100
793.600	56.359	0.100
793.700	35.893	0.100
793.800	29.406	0.100
793.900	34.708	0.100
794.000	50.990	0.100
794.100	51.800	0.100
794.200	35.119	0.100
794.300	40.648	0.100
794.400	54.257	0.100
794.500	36.040	0.100
794.600	50.475	0.100
794.700	43.811	0.100
794.800	28.150	0.100
794.900	54.747	0.100
795.000	45.089	0.100
795.100	46.613	0.100
795.200	44.435	0.100
795.300	63.854	0.100
795.400	50.216	0.100
795.500	46.494	0.100
795.600	48.256	0.100
795.700	46.407	0.100
795.800	52.648	0.100
795.900	48.026	0.100
796.000	57.205	0.100
796.100	62.229	0.100
796.200	48.423	0.100
796.300	55.153	0.100
796.400	38.932	0.100
796.500	52.273	0.100
796.600	60.802	0.100
796.700	50.068	0.100
796.800	57.133	0.100
796.900	59.766	0.100
797.000	57.411	0.100
797.100	59.664	0.100
797.200	45.842	0.100
797.300	51.067	0.100
797.400	60.567	0.100
797.500	58.068	0.100
797.600	67.934	0.100
797.700	39.306	0.100
797.800	57.960	0.100
797.900	50.390	0.100
798.000	60.929	0.100
798.100	60.917	0.100
798.200	49.888	0.100
798.300	53.043	0.100
798.400	64.981	0.100
798.500	60.728	0.100
798.600	47.897	0.100
798.700	43.941	0.100
798.800	76.703	0.100
798.900	53.817	0.100
799.000	48.145	0.100
799.100	41.114	0.100
799.200	57.449	0.100
799.300	60.314	0.100
799.400	49.294	0.100
799.500	51.786	0.100
799.600	54.728	0.100
799.700	71.489	0.100
799.800	60.821	0.100
799.900	46.233	0.100
800.000	64.259	0.100
