time /s	I /nA	E /V
0.100	-8.848	0.100
0.200	-11.129	0.099
0.300	-28.195	0.099
0.400	-8.784	0.100
0.500	-11.329	0.099
0.600	-7.046	0.099
0.700	1.239	0.099
0.800	-13.868	0.100
0.900	-5.290	0.100
1.000	1.337	0.100
1.100	-45.310	0.099
1.200	-12.905	0.099
1.300	-18.154	0.099
1.400	-2.670	0.099
1.500	-4.660	0.100
1.600	-23.672	0.099
1.700	3.718	0.099
1.800	4.542	0.099
1.900	-15.006	0.099
2.000	-10.133	0.100
2.100	-16.024	0.099
2.200	-18.586	0.099
2.300	6.378	0.100
2.400	-22.202	0.100
2.500	4.552	0.100
2.600	-5.535	0.100
2.700	-1.571	0.099
2.800	-12.082	0.100
2.900	-15.899	0.099
3.000	-22.591	0.099
3.100	-7.503	0.099
3.200	-15.208	0.099
3.300	-23.326	0.099
3.400	-17.255	0.099
3.500	0.634	0.100
3.600	4.000	0.100
3.700	-14.533	0.099
3.800	-6.488	0.100
3.900	-12.492	0.099
4.000	-2.183	0.099
4.100	-17.497	0.100
4.200	-3.378	0.099
4.300	-15.995	0.100
4.400	-1.040	0.100
4.500	-16.478	0.099
4.600	-5.495	0.099
4.700	-3.837	0.099
4.800	-1.997	0.100
4.900	-15.020	0.100
5.000	-7.876	0.100
5.100	-7.829	0.100
5.200	-16.516	0.099
5.300	7.946	0.099
5.400	-17.390	0.100
5.500	-7.190	0.100
5.600	-13.740	0.100
5.700	0.643	0.100
5.800	4.929	0.099
5.900	-29.407	0.100
6.000	-16.970	0.099
6.100	-6.589	0.100
6.200	-6.720	0.100
6.300	-11.064	0.100
6.400	-25.989	0.099
6.500	-2.816	0.099
6.600	-8.472	0.100
6.700	5.569	0.100
6.800	-26.022	0.099
6.900	-24.951	0.100
7.000	4.169	0.100
7.100	5.018	0.100
7.200	-9.427	0.100
7.300	-3.513	0.100
7.400	-9.104	0.100
7.500	-1.798	0.100
7.600	-16.053	0.100
7.700	6.506	0.100
7.800	-10.516	0.099
7.900	4.924	0.100
8.000	-7.026	0.100
8.100	-13.421	0.099
8.200	-17.100	0.099
8.300	-6.044	0.100
8.400	-28.902	0.099
8.500	10.005	0.099
8.600	-4.766	0.100
8.700	-19.132	0.100
8.800	-7.290	0.099
8.900	-2.141	0.099
9.000	-13.373	0.099
9.100	-5.941	0.100
9.200	-10.063	0.100
9.300	19.582	0.099
9.400	4.694	0.099
9.500	-14.522	0.100
9.600	-4.872	0.099
9.700	-8.700	0.100
9.800	-10.066	0.100
9.900	-19.246	0.100
10.000	8.819	0.100
10.100	-5.249	0.099
10.200	-1.824	0.099
10.300	-10.827	0.100
10.400	-21.006	0.100
10.500	5.552	0.100
10.600	-13.302	0.100
10.700	-9.680	0.099
10.800	-23.570	0.099
10.900	-13.732	0.099
11.000	-11.379	0.100
11.100	-11.014	0.100
11.200	-13.144	0.099
11.300	-5.824	0.099
11.400	-4.548	0.100
11.500	2.376	0.100
11.600	-23.441	0.100
11.700	-7.210	0.100
11.800	-16.071	0.099
11.900	-0.969	0.100
12.000	-6.321	0.100
12.100	-14.246	0.100
12.200	-13.371	0.099
12.300	8.351	0.100
12.400	-4.053	0.100
12.500	-11.622	0.100
12.600	-12.917	0.100
12.700	-8.218	0.100
12.800	-21.173	0.100
12.900	4.262	0.100
13.000	-2.235	0.099
13.100	-14.067	0.100
13.200	-3.334	0.100
13.300	-16.245	0.100
13.400	-9.017	0.100
13.500	-7.581	0.100
13.600	-15.521	0.099
13.700	-21.155	0.100
13.800	-6.299	0.100
13.900	7.187	0.100
14.000	-9.296	0.099
14.100	-8.647	0.099
14.200	-17.157	0.100
14.300	4.309	0.100
14.400	-17.205	0.100
14.500	-6.276	0.100
14.600	-8.289	0.100
14.700	-9.641	0.099
14.800	-4.974	0.100
14.900	-2.437	0.099
15.000	-5.219	0.100
15.100	-13.658	0.100
15.200	-10.557	0.100
15.300	-15.862	0.100
15.400	-17.828	0.099
15.500	-2.453	0.100
15.600	14.571	0.100
15.700	5.499	0.100
15.800	-23.392	0.100
15.900	-6.436	0.100
16.000	-10.284	0.099
16.100	-14.202	0.100
16.200	-4.892	0.100
16.300	1.353	0.100
16.400	-7.569	0.100
16.500	-6.543	0.099
16.600	-6.169	0.100
16.700	-14.439	0.099
16.800	6.105	0.099
16.900	-1.223	0.100
17.000	-7.949	0.100
17.100	-14.973	0.099
17.200	1.668	0.100
17.300	-7.311	0.100
17.400	-16.373	0.100
17.500	-2.968	0.099
17.600	-14.025	0.100
17.700	2.297	0.100
17.800	10.200	0.099
17.900	-24.296	0.100
18.000	-19.086	0.100
18.100	-11.390	0.100
18.200	-7.337	0.100
18.300	4.738	0.099
18.400	5.014	0.100
18.500	-5.685	0.100
18.600	-3.034	0.099
18.700	-20.243	0.100
18.800	-19.129	0.100
18.900	-10.301	0.099
19.000	-7.379	0.100
19.100	-9.513	0.100
19.200	-1.244	0.100
19.300	-19.946	0.099
19.400	-16.111	0.100
19.500	1.420	0.100
19.600	-4.994	0.099
19.700	-6.949	0.100
19.800	-3.899	0.100
19.900	-18.278	0.100
20.000	-18.622	0.100
20.100	-1.524	0.100
20.200	-7.127	0.100
20.300	0.569	0.100
20.400	-11.658	0.100
20.500	1.863	0.100
20.600	-8.035	0.100
20.700	-13.104	0.100
20.800	-4.834	0.100
20.900	1.479	0.099
21.000	-6.990	0.100
21.100	-2.031	0.099
21.200	-14.899	0.100
21.300	-10.493	0.100
21.400	-8.478	0.099
21.500	-2.965	0.100
21.600	-15.061	0.100
21.700	-9.443	0.100
21.800	-3.131	0.099
21.900	-5.446	0.100
22.000	-20.019	0.100
22.100	-3.412	0.100
22.200	-13.283	0.100
22.300	-14.123	0.100
22.400	6.407	0.100
22.500	-1.162	0.100
22.600	-8.114	0.100
22.700	-4.891	0.100
22.800	-11.626	0.100
22.900	-14.973	0.100
23.000	-7.646	0.100
23.100	1.385	0.100
23.200	-10.453	0.099
23.300	1.456	0.100
23.400	-3.021	0.100
23.500	-19.685	0.100
23.600	-8.744	0.099
23.700	-14.230	0.099
23.800	1.922	0.100
23.900	-8.449	0.100
24.000	12.598	0.100
24.100	-10.179	0.099
24.200	-14.573	0.100
24.300	-4.975	0.100
24.400	2.104	0.100
24.500	-17.962	0.100
24.600	-14.022	0.100
24.700	-2.972	0.099
24.800	-2.694	0.099
24.900	-7.110	0.099
25.000	-11.948	0.099
25.100	-20.986	0.099
25.200	6.665	0.099
25.300	-3.425	0.100
25.400	-10.424	0.099
25.500	-3.655	0.100
25.600	-2.182	0.099
25.700	-14.039	0.099
25.800	-17.476	0.099
25.900	7.430	0.100
26.000	-36.603	0.100
26.100	-0.356	0.099
26.200	-1.747	0.099
26.300	-11.666	0.099
26.400	0.074	0.099
26.500	10.010	0.100
26.600	-6.393	0.099
26.700	-1.861	0.099
26.800	-11.381	0.099
26.900	-7.607	0.099
27.000	-16.129	0.099
27.100	-17.762	0.099
27.200	-1.615	0.100
27.300	-3.213	0.099
27.400	-0.652	0.099
27.500	-5.428	0.100
27.600	-8.883	0.100
27.700	-14.621	0.099
27.800	-8.521	0.100
27.900	2.172	0.099
28.000	-18.430	0.099
28.100	-11.163	0.100
28.200	-4.556	0.100
28.300	-2.460	0.099
28.400	-18.153	0.099
28.500	0.056	0.099
28.600	-1.071	0.099
28.700	-0.746	0.099
28.800	3.681	0.100
28.900	-17.428	0.099
29.000	-14.114	0.099
29.100	-18.472	0.099
29.200	3.835	0.099
29.300	-5.592	0.099
29.400	-14.079	0.099
29.500	0.639	0.099
29.600	3.433	0.099
29.700	12.723	0.100
29.800	-11.821	0.099
29.900	-3.628	0.099
30.000	-0.587	0.099
30.100	-12.744	0.099
30.200	-4.040	0.100
30.300	-4.017	0.099
30.400	-14.116	0.099
30.500	2.888	0.099
30.600	-5.518	0.099
30.700	-5.285	0.099
30.800	4.416	0.100
30.900	-15.233	0.100
31.000	-11.132	0.099
31.100	-18.606	0.099
31.200	-6.945	0.099
31.300	0.226	0.099
31.400	12.677	0.099
31.500	2.669	0.099
31.600	3.999	0.100
31.700	2.737	0.099
31.800	3.757	0.099
31.900	-22.582	0.099
32.000	-6.254	0.099
32.100	14.201	0.099
32.200	12.208	0.099
32.300	2.699	0.099
32.400	7.131	0.099
32.500	-2.261	0.100
32.600	4.214	0.100
32.700	16.224	0.099
32.800	3.034	0.099
32.900	7.348	0.099
33.000	17.379	0.099
33.100	2.991	0.099
33.200	-0.993	0.100
33.300	16.633	0.099
33.400	3.937	0.099
33.500	6.132	0.099
33.600	9.533	0.099
33.700	3.588	0.099
33.800	-4.777	0.099
33.900	3.713	0.099
34.000	8.322	0.100
34.100	-7.332	0.099
34.200	-4.110	0.099
34.300	7.800	0.099
34.400	6.573	0.099
34.500	5.335	0.099
34.600	11.890	0.100
34.700	-7.187	0.099
34.800	9.745	0.099
34.900	2.141	0.099
35.000	22.570	0.099
35.100	12.535	0.099
35.200	5.992	0.099
35.300	0.691	0.099
35.400	14.646	0.099
35.500	2.283	0.099
35.600	12.158	0.099
35.700	20.647	0.099
35.800	13.691	0.099
35.900	17.530	0.099
36.000	8.960	0.099
36.100	1.676	0.099
36.200	8.289	0.099
36.300	7.487	0.099
36.400	22.989	0.099
36.500	27.030	0.099
36.600	-0.147	0.099
36.700	16.899	0.100
36.800	17.615	0.100
36.900	19.240	0.100
37.000	5.547	0.099
37.100	15.205	0.099
37.200	0.523	0.099
37.300	20.861	0.099
37.400	21.871	0.100
37.500	14.191	0.099
37.600	10.607	0.099
37.700	33.192	0.099
37.800	19.993	0.099
37.900	2.282	0.100
38.000	21.993	0.099
38.100	16.238	0.099
38.200	25.932	0.099
38.300	14.775	0.099
38.400	24.298	0.099
38.500	17.928	0.099
38.600	22.035	0.099
38.700	20.309	0.099
38.800	18.315	0.099
38.900	40.145	0.099
39.000	34.511	0.099
39.100	22.569	0.099
39.200	21.925	0.099
39.300	23.026	0.099
39.400	25.531	0.099
39.500	35.695	0.099
39.600	40.495	0.099
39.700	14.920	0.099
39.800	27.813	0.099
39.900	18.067	0.100
40.000	27.409	0.099
40.100	35.857	0.099
40.200	27.578	0.099
40.300	22.774	0.099
40.400	28.189	0.099
40.500	54.961	0.100
40.600	19.595	0.099
40.700	30.560	0.099
40.800	23.331	0.100
40.900	36.445	0.100
41.000	26.195	0.099
41.100	28.627	0.099
41.200	29.496	0.099
41.300	23.086	0.100
41.400	29.225	0.099
41.500	26.103	0.099
41.600	24.549	0.100
41.700	34.574	0.099
41.800	22.458	0.100
41.900	16.775	0.100
42.000	44.385	0.100
42.100	44.648	0.100
42.200	6.861	0.099
42.300	22.945	0.099
42.400	47.091	0.099
42.500	30.404	0.099
42.600	35.235	0.099
42.700	34.049	0.099
42.800	30.858	0.099
42.900	28.996	0.099
43.000	39.006	0.099
43.100	35.997	0.100
43.200	38.205	0.099
43.300	33.235	0.099
43.400	26.528	0.099
43.500	38.411	0.099
43.600	36.320	0.099
43.700	34.514	0.099
43.800	20.310	0.099
43.900	40.002	0.099
44.000	33.100	0.100
44.100	22.884	0.099
44.200	26.851	0.099
44.300	31.811	0.099
44.400	24.446	0.099
44.500	42.351	0.099
44.600	14.757	0.099
44.700	41.984	0.099
44.800	32.858	0.099
44.900	34.856	0.099
45.000	35.089	0.099
45.100	28.902	0.099
45.200	27.689	0.100
45.300	8.555	0.100
45.400	37.204	0.100
45.500	39.937	0.100
45.600	11.459	0.100
45.700	12.852	0.100
45.800	30.755	0.100
45.900	37.532	0.100
46.000	22.879	0.100
46.100	24.569	0.099
46.200	33.566	0.099
46.300	42.742	0.100
46.400	12.112	0.100
46.500	22.704	0.099
46.600	45.865	0.099
46.700	30.932	0.099
46.800	20.604	0.100
46.900	13.959	0.099
47.000	23.263	0.099
47.100	44.925	0.099
47.200	38.136	0.100
47.300	10.134	0.099
47.400	23.184	0.099
47.500	40.369	0.100
47.600	21.287	0.099
47.700	28.708	0.099
47.800	25.928	0.100
47.900	16.269	0.099
48.000	19.306	0.099
48.100	21.311	0.100
48.200	21.522	0.100
48.300	33.260	0.100
48.400	39.817	0.100
48.500	20.976	0.099
48.600	19.135	0.099
48.700	27.633	0.099
48.800	17.167	0.099
48.900	27.002	0.100
49.000	28.816	0.100
49.100	33.819	0.100
49.200	37.716	0.100
49.300	26.154	0.100
49.400	15.238	0.099
49.500	40.716	0.100
49.600	24.789	0.099
49.700	24.614	0.099
49.800	41.325	0.100
49.900	9.358	0.100
50.000	27.747	0.100
50.100	23.720	0.099
50.200	14.731	0.099
50.300	25.445	0.100
50.400	23.814	0.100
50.500	22.338	0.100
50.600	27.849	0.100
50.700	15.546	0.100
50.800	37.180	0.100
50.900	32.854	0.099
51.000	23.177	0.100
51.100	20.972	0.100
51.200	29.813	0.100
51.300	23.533	0.100
51.400	9.922	0.100
51.500	36.024	0.100
51.600	25.334	0.100
51.700	13.821	0.100
51.800	14.749	0.100
51.900	29.164	0.100
52.000	17.314	0.100
52.100	11.475	0.100
52.200	25.058	0.100
52.300	32.195	0.100
52.400	-1.966	0.099
52.500	24.472	0.100
52.600	32.036	0.099
52.700	20.879	0.099
52.800	16.927	0.100
52.900	16.607	0.100
53.000	18.187	0.100
53.100	18.945	0.099
53.200	15.072	0.100
53.300	27.758	0.100
53.400	11.745	0.100
53.500	28.197	0.099
53.600	20.892	0.100
53.700	20.507	0.100
53.800	11.389	0.100
53.900	28.090	0.100
54.000	32.727	0.100
54.100	41.930	0.100
54.200	20.705	0.100
54.300	18.831	0.099
54.400	24.453	0.100
54.500	22.680	0.099
54.600	24.107	0.099
54.700	21.544	0.100
54.800	21.265	0.100
54.900	10.792	0.100
55.000	6.221	0.100
55.100	17.419	0.100
55.200	21.392	0.100
55.300	24.910	0.100
55.400	12.656	0.100
55.500	17.044	0.099
55.600	19.329	0.100
55.700	22.557	0.099
55.800	26.343	0.100
55.900	17.244	0.099
56.000	19.999	0.100
56.100	20.242	0.100
56.200	13.573	0.100
56.300	9.499	0.100
56.400	24.168	0.100
56.500	28.215	0.099
56.600	15.198	0.100
56.700	25.035	0.100
56.800	19.324	0.100
56.900	22.278	0.099
57.000	7.501	0.100
57.100	28.106	0.100
57.200	28.966	0.099
57.300	15.016	0.100
57.400	18.389	0.100
57.500	14.378	0.099
57.600	27.097	0.100
57.700	10.296	0.100
57.800	17.281	0.099
57.900	17.296	0.100
58.000	27.172	0.100
58.100	32.260	0.100
58.200	24.687	0.100
58.300	15.582	0.100
58.400	14.541	0.100
58.500	19.041	0.100
58.600	16.859	0.100
58.700	12.851	0.099
58.800	22.519	0.100
58.900	16.075	0.100
59.000	19.443	0.100
59.100	20.270	0.099
59.200	13.704	0.100
59.300	40.577	0.100
59.400	21.021	0.100
59.500	8.372	0.100
59.600	15.915	0.099
59.700	12.263	0.100
59.800	20.640	0.100
59.900	23.510	0.100
60.000	11.987	0.100
60.100	9.011	0.100
60.200	11.155	0.099
60.300	18.594	0.100
60.400	21.450	0.100
60.500	26.953	0.100
60.600	12.502	0.100
60.700	18.957	0.100
60.800	22.684	0.100
60.900	15.485	0.099
61.000	16.379	0.099
61.100	19.186	0.100
61.200	11.585	0.100
61.300	20.129	0.100
61.400	21.010	0.099
61.500	17.716	0.099
61.600	12.682	0.100
61.700	31.920	0.099
61.800	-2.674	0.100
61.900	17.729	0.100
62.000	25.285	0.100
62.100	15.974	0.100
62.200	18.710	0.099
62.300	24.255	0.100
62.400	17.699	0.100
62.500	17.758	0.100
62.600	29.621	0.099
62.700	15.703	0.100
62.800	23.189	0.100
62.900	28.238	0.099
63.000	19.769	0.100
63.100	-1.057	0.100
63.200	5.492	0.100
63.300	20.645	0.099
63.400	15.246	0.099
63.500	10.492	0.099
63.600	12.596	0.099
63.700	17.722	0.100
63.800	22.424	0.100
63.900	15.431	0.100
64.000	8.237	0.100
64.100	28.740	0.100
64.200	20.436	0.100
64.300	11.833	0.099
64.400	17.563	0.099
64.500	19.248	0.100
64.600	8.045	0.099
64.700	10.752	0.099
64.800	37.111	0.100
64.900	16.478	0.099
65.000	5.425	0.100
65.100	17.028	0.100
65.200	6.136	0.100
65.300	21.439	0.100
65.400	18.704	0.100
65.500	24.802	0.100
65.600	17.248	0.100
65.700	22.931	0.100
65.800	9.361	0.099
65.900	21.114	0.099
66.000	23.783	0.100
66.100	22.129	0.099
66.200	15.092	0.100
66.300	25.101	0.100
66.400	19.637	0.100
66.500	22.715	0.100
66.600	29.482	0.100
66.700	14.120	0.100
66.800	26.773	0.100
66.900	3.819	0.100
67.000	33.791	0.100
67.100	13.697	0.099
67.200	5.204	0.100
67.300	24.055	0.099
67.400	8.766	0.100
67.500	8.466	0.100
67.600	22.305	0.100
67.700	37.307	0.100
67.800	21.435	0.100
67.900	21.228	0.099
68.000	13.989	0.100
68.100	20.816	0.100
68.200	14.372	0.100
68.300	24.100	0.100
68.400	29.142	0.099
68.500	5.474	0.099
68.600	36.949	0.100
68.700	13.977	0.100
68.800	4.147	0.100
68.900	17.548	0.100
69.000	9.182	0.099
69.100	26.008	0.100
69.200	24.307	0.099
69.300	15.208	0.099
69.400	33.668	0.100
69.500	20.061	0.099
69.600	15.453	0.099
69.700	19.256	0.099
69.800	11.819	0.099
69.900	10.318	0.099
70.000	0.556	0.100
70.100	16.988	0.099
70.200	24.862	0.099
70.300	33.742	0.100
70.400	17.258	0.100
70.500	16.662	0.100
70.600	31.158	0.100
70.700	28.349	0.100
70.800	1.179	0.100
70.900	19.560	0.100
71.000	22.468	0.100
71.100	17.948	0.100
71.200	16.304	0.099
71.300	10.697	0.100
71.400	22.873	0.100
71.500	24.403	0.099
71.600	24.753	0.100
71.700	19.308	0.100
71.800	21.993	0.099
71.900	24.688	0.100
72.000	25.630	0.100
72.100	18.335	0.100
72.200	30.553	0.100
72.300	24.039	0.100
72.400	10.456	0.100
72.500	26.265	0.100
72.600	16.915	0.100
72.700	21.346	0.100
72.800	23.871	0.100
72.900	8.916	0.100
73.000	16.963	0.099
73.100	26.629	0.100
73.200	11.564	0.100
73.300	28.862	0.100
73.400	25.841	0.100
73.500	11.686	0.100
73.600	11.279	0.100
73.700	21.063	0.100
73.800	27.063	0.100
73.900	14.053	0.100
74.000	16.459	0.100
74.100	14.698	0.100
74.200	32.017	0.100
74.300	21.558	0.100
74.400	12.637	0.100
74.500	14.502	0.100
74.600	19.433	0.100
74.700	29.115	0.100
74.800	18.688	0.100
74.900	17.016	0.099
75.000	27.816	0.100
75.100	25.071	0.100
75.200	18.235	0.100
75.300	19.197	0.100
75.400	30.810	0.100
75.500	21.230	0.100
75.600	14.004	0.100
75.700	26.075	0.100
75.800	20.337	0.100
75.900	25.581	0.100
76.000	9.954	0.100
76.100	21.117	0.100
76.200	18.407	0.100
76.300	23.493	0.100
76.400	31.340	0.100
76.500	29.034	0.100
76.600	13.432	0.100
76.700	18.739	0.100
76.800	28.187	0.100
76.900	17.137	0.100
77.000	31.268	0.100
77.100	15.519	0.100
77.200	10.612	0.100
77.300	21.242	0.100
77.400	23.068	0.100
77.500	20.592	0.100
77.600	10.780	0.100
77.700	16.920	0.100
77.800	22.897	0.100
77.900	25.837	0.100
78.000	27.480	0.100
78.100	9.346	0.100
78.200	22.914	0.100
78.300	29.738	0.100
78.400	31.114	0.100
78.500	28.094	0.100
78.600	5.762	0.100
78.700	17.781	0.100
78.800	27.257	0.100
78.900	25.980	0.100
79.000	16.368	0.100
79.100	21.705	0.100
79.200	17.373	0.100
79.300	17.323	0.100
79.400	16.518	0.100
79.500	24.450	0.100
79.600	10.237	0.100
79.700	10.039	0.100
79.800	12.257	0.100
79.900	41.893	0.100
80.000	24.457	0.100
80.100	17.743	0.100
80.200	13.910	0.100
80.300	19.634	0.100
80.400	22.686	0.100
80.500	27.448	0.100
80.600	18.477	0.100
80.700	15.163	0.100
80.800	-0.497	0.100
80.900	32.633	0.100
81.000	29.956	0.100
81.100	18.306	0.100
81.200	16.292	0.100
81.300	19.130	0.100
81.400	29.320	0.100
81.500	17.140	0.100
81.600	19.962	0.100
81.700	21.836	0.100
81.800	10.639	0.100
81.900	15.644	0.100
82.000	21.599	0.100
82.100	28.223	0.100
82.200	5.526	0.100
82.300	15.041	0.100
82.400	15.050	0.100
82.500	5.606	0.100
82.600	9.225	0.100
82.700	32.868	0.100
82.800	9.949	0.100
82.900	9.305	0.100
83.000	-0.172	0.100
83.100	16.723	0.100
83.200	17.335	0.100
83.300	17.060	0.100
83.400	22.236	0.100
83.500	31.929	0.100
83.600	7.475	0.100
83.700	16.796	0.100
83.800	24.375	0.100
83.900	34.090	0.100
84.000	26.308	0.100
84.100	31.734	0.100
84.200	18.420	0.100
84.300	8.969	0.100
84.400	26.551	0.100
84.500	15.975	0.100
84.600	2.036	0.100
84.700	24.364	0.100
84.800	29.770	0.100
84.900	22.308	0.100
85.000	22.755	0.100
85.100	11.811	0.100
85.200	17.237	0.100
85.300	26.255	0.100
85.400	19.563	0.100
85.500	26.030	0.100
85.600	30.608	0.100
85.700	12.371	0.100
85.800	28.596	0.100
85.900	5.076	0.100
86.000	20.152	0.100
86.100	20.830	0.100
86.200	19.326	0.100
86.300	28.517	0.100
86.400	8.014	0.100
86.500	42.066	0.100
86.600	18.029	0.100
86.700	28.624	0.100
86.800	18.337	0.100
86.900	4.533	0.100
87.000	20.024	0.100
87.100	26.601	0.100
87.200	22.222	0.100
87.300	19.695	0.100
87.400	12.222	0.100
87.500	28.351	0.100
87.600	22.055	0.100
87.700	28.145	0.100
87.800	35.481	0.100
87.900	29.885	0.100
88.000	7.526	0.100
88.100	27.304	0.100
88.200	18.002	0.100
88.300	15.993	0.100
88.400	12.067	0.100
88.500	21.481	0.100
88.600	12.066	0.100
88.700	17.364	0.100
88.800	25.331	0.100
88.900	10.046	0.100
89.000	34.212	0.100
89.100	16.326	0.100
89.200	34.513	0.100
89.300	30.606	0.100
89.400	0.107	0.100
89.500	32.367	0.100
89.600	23.931	0.100
89.700	29.048	0.100
89.800	18.928	0.100
89.900	28.402	0.100
90.000	6.762	0.100
90.100	33.533	0.100
90.200	18.227	0.100
90.300	44.135	0.100
90.400	17.203	0.100
90.500	14.772	0.100
90.600	37.065	0.100
90.700	14.011	0.100
90.800	24.751	0.100
90.900	9.360	0.100
91.000	12.288	0.100
91.100	22.025	0.100
91.200	17.271	0.100
91.300	20.866	0.100
91.400	15.414	0.100
91.500	25.702	0.100
91.600	4.402	0.100
91.700	4.281	0.100
91.800	8.010	0.100
91.900	11.772	0.100
92.000	8.129	0.100
92.100	-9.500	0.100
92.200	12.599	0.100
92.300	8.489	0.100
92.400	2.849	0.100
92.500	-6.025	0.100
92.600	10.843	0.100
92.700	13.529	0.100
92.800	-0.077	0.100
92.900	13.396	0.100
93.000	-11.054	0.100
93.100	-20.733	0.100
93.200	-2.168	0.100
93.300	19.956	0.100
93.400	6.649	0.100
93.500	-0.391	0.100
93.600	-4.325	0.100
93.700	-14.209	0.100
93.800	-25.490	0.100
93.900	8.666	0.100
94.000	-3.160	0.100
94.100	-19.435	0.100
94.200	-3.964	0.100
94.300	-2.898	0.100
94.400	-10.624	0.100
94.500	-14.812	0.100
94.600	-17.554	0.100
94.700	-15.556	0.100
94.800	2.501	0.100
94.900	4.511	0.100
95.000	-15.259	0.100
95.100	-7.174	0.100
95.200	-4.225	0.100
95.300	-11.404	0.100
95.400	-8.805	0.100
95.500	-8.217	0.100
95.600	-18.437	0.100
95.700	3.344	0.100
95.800	-18.727	0.100
95.900	-7.873	0.100
96.000	-15.511	0.100
96.100	-5.320	0.100
96.200	-10.326	0.100
96.300	-11.688	0.100
96.400	6.517	0.100
96.500	-11.042	0.100
96.600	-15.472	0.100
96.700	-13.670	0.100
96.800	1.878	0.100
96.900	-31.332	0.100
97.000	-22.515	0.100
97.100	-20.119	0.100
97.200	-6.219	0.100
97.300	-11.523	0.100
97.400	-9.181	0.100
97.500	-3.930	0.100
97.600	-2.735	0.100
97.700	-22.774	0.100
97.800	-5.988	0.100
97.900	-16.761	0.100
98.000	7.306	0.100
98.100	-4.870	0.100
98.200	-23.455	0.100
98.300	-16.320	0.100
98.400	-22.298	0.100
98.500	-0.898	0.100
98.600	-8.127	0.100
98.700	-0.848	0.100
98.800	-4.141	0.100
98.900	-11.699	0.100
99.000	-9.808	0.100
99.100	-11.015	0.100
99.200	-2.172	0.100
99.300	-7.788	0.100
99.400	-19.164	0.100
99.500	-0.883	0.100
99.600	-8.600	0.100
99.700	-17.540	0.100
99.800	-13.197	0.100
99.900	-8.412	0.100
100.000	-8.192	0.100
100.100	-0.819	0.100
100.200	-12.582	0.100
100.300	-3.141	0.100
100.400	-13.087	0.100
100.500	-14.279	0.100
100.600	-1.195	0.100
100.700	-6.214	0.100
100.800	-30.035	0.100
100.900	-11.502	0.100
101.000	-6.072	0.100
101.100	-21.285	0.100
101.200	-8.548	0.100
101.300	-15.261	0.100
101.400	-3.215	0.100
101.500	2.230	0.100
101.600	-5.473	0.100
101.700	6.029	0.100
101.800	-8.761	0.100
101.900	-16.438	0.100
102.000	-16.516	0.100
102.100	3.997	0.100
102.200	-17.158	0.100
102.300	-7.895	0.100
102.400	-12.348	0.100
102.500	-6.136	0.100
102.600	8.476	0.100
102.700	-7.836	0.100
102.800	-5.658	0.100
102.900	-18.124	0.100
103.000	5.434	0.100
103.100	-8.275	0.100
103.200	-1.815	0.100
103.300	-6.624	0.100
103.400	-9.404	0.100
103.500	-3.664	0.100
103.600	-12.411	0.100
103.700	-5.238	0.100
103.800	-14.231	0.100
103.900	5.994	0.100
104.000	-25.276	0.100
104.100	-11.209	0.100
104.200	-7.681	0.100
104.300	-1.974	0.100
104.400	8.290	0.100
104.500	-20.231	0.100
104.600	-3.455	0.100
104.700	-13.870	0.100
104.800	-21.566	0.100
104.900	-2.730	0.100
105.000	-19.386	0.100
105.100	0.122	0.100
105.200	-7.915	0.100
105.300	3.190	0.100
105.400	-9.080	0.100
105.500	2.770	0.100
105.600	-15.036	0.100
105.700	-3.078	0.100
105.800	-11.473	0.100
105.900	-23.548	0.100
106.000	-8.778	0.100
106.100	-6.857	0.100
106.200	-18.814	0.100
106.300	-2.639	0.100
106.400	3.921	0.100
106.500	-9.843	0.100
106.600	-9.060	0.100
106.700	-19.911	0.100
106.800	-4.295	0.100
106.900	1.875	0.100
107.000	3.178	0.100
107.100	-7.408	0.100
107.200	-11.610	0.100
107.300	-17.154	0.100
107.400	-3.245	0.100
107.500	-2.772	0.100
107.600	-2.895	0.100
107.700	-10.325	0.100
107.800	-2.408	0.100
107.900	-0.417	0.100
108.000	-28.689	0.100
108.100	-9.763	0.100
108.200	-6.569	0.100
108.300	1.550	0.100
108.400	-5.430	0.100
108.500	2.848	0.100
108.600	-2.157	0.100
108.700	-13.327	0.100
108.800	-4.799	0.100
108.900	0.560	0.100
109.000	-3.873	0.100
109.100	-1.382	0.100
109.200	-15.808	0.100
109.300	-3.154	0.100
109.400	-9.310	0.100
109.500	-9.846	0.100
109.600	-3.760	0.100
109.700	-20.754	0.100
109.800	-12.807	0.100
109.900	2.300	0.100
110.000	-2.480	0.100
110.100	-12.044	0.100
110.200	-0.526	0.100
110.300	-4.818	0.100
110.400	-0.975	0.100
110.500	-7.334	0.100
110.600	-9.894	0.100
110.700	1.060	0.100
110.800	-0.685	0.100
110.900	6.197	0.100
111.000	-8.805	0.100
111.100	-10.178	0.100
111.200	-9.468	0.100
111.300	-4.792	0.100
111.400	-6.868	0.100
111.500	5.697	0.100
111.600	-21.348	0.100
111.700	-17.909	0.100
111.800	-4.609	0.100
111.900	-17.885	0.100
112.000	-1.430	0.100
112.100	4.285	0.100
112.200	-18.605	0.100
112.300	-3.410	0.100
112.400	-13.256	0.100
112.500	-13.104	0.100
112.600	-6.335	0.100
112.700	-32.450	0.100
112.800	-9.825	0.100
112.900	-25.478	0.100
113.000	-11.475	0.100
113.100	-1.676	0.100
113.200	-23.606	0.100
113.300	-9.843	0.100
113.400	1.577	0.100
113.500	15.967	0.100
113.600	-14.830	0.100
113.700	-10.737	0.100
113.800	4.570	0.100
113.900	-11.035	0.100
114.000	-10.838	0.100
114.100	-7.194	0.100
114.200	-6.741	0.100
114.300	-13.621	0.100
114.400	-16.843	0.100
114.500	0.370	0.100
114.600	-3.718	0.100
114.700	-4.808	0.100
114.800	-2.228	0.100
114.900	-18.469	0.100
115.000	-13.018	0.100
115.100	-22.077	0.100
115.200	-2.993	0.100
115.300	-3.111	0.100
115.400	-18.640	0.100
115.500	-5.654	0.100
115.600	-0.724	0.100
115.700	-9.907	0.100
115.800	-19.527	0.100
115.900	-17.368	0.100
116.000	-1.954	0.100
116.100	-14.490	0.100
116.200	-6.508	0.100
116.300	3.207	0.100
116.400	-8.035	0.100
116.500	-11.728	0.100
116.600	-16.336	0.100
116.700	-11.268	0.100
116.800	-1.408	0.100
116.900	2.679	0.100
117.000	5.837	0.100
117.100	-25.059	0.100
117.200	-0.846	0.100
117.300	-17.638	0.100
117.400	-3.863	0.100
117.500	-8.317	0.100
117.600	-9.029	0.100
117.700	-15.541	0.100
117.800	-4.090	0.100
117.900	6.075	0.100
118.000	-11.461	0.100
118.100	-13.240	0.100
118.200	-23.302	0.100
118.300	-13.320	0.100
118.400	-11.509	0.100
118.500	-0.587	0.100
118.600	-8.196	0.100
118.700	-10.074	0.100
118.800	-6.350	0.100
118.900	-9.247	0.100
119.000	0.324	0.100
119.100	-5.135	0.100
119.200	-15.869	0.100
119.300	-21.132	0.100
119.400	-3.707	0.100
119.500	-3.382	0.100
119.600	-20.259	0.100
119.700	-11.311	0.100
119.800	-14.536	0.100
119.900	4.870	0.100
120.000	-0.176	0.100
120.100	-11.624	0.100
120.200	-10.561	0.100
120.300	-6.942	0.100
120.400	-5.511	0.100
120.500	-17.256	0.100
120.600	6.496	0.100
120.700	0.302	0.100
120.800	-11.157	0.100
120.900	-0.624	0.100
121.000	-7.474	0.100
121.100	-14.338	0.100
121.200	-25.532	0.100
121.300	5.981	0.100
121.400	-25.343	0.100
121.500	-13.769	0.100
121.600	3.222	0.100
121.700	-8.129	0.100
121.800	-11.894	0.100
121.900	-8.273	0.100
122.000	-17.805	0.100
122.100	-19.264	0.100
122.200	-2.709	0.100
122.300	-13.549	0.100
122.400	8.507	0.100
122.500	-6.512	0.100
122.600	-1.884	0.100
122.700	6.449	0.100
122.800	-17.376	0.100
122.900	-11.945	0.100
123.000	-10.614	0.100
123.100	-15.654	0.100
123.200	0.547	0.100
123.300	5.212	0.100
123.400	-14.120	0.100
123.500	-12.353	0.100
123.600	-12.131	0.100
123.700	-1.432	0.100
123.800	-13.330	0.100
123.900	-4.565	0.100
124.000	0.158	0.100
124.100	-8.588	0.100
124.200	-14.841	0.100
124.300	-23.983	0.100
124.400	-6.166	0.100
124.500	-17.524	0.100
124.600	-3.981	0.100
124.700	-15.020	0.100
124.800	-4.139	0.100
124.900	-11.158	0.100
125.000	-14.179	0.100
125.100	2.042	0.100
125.200	-3.874	0.100
125.300	-37.185	0.100
125.400	4.305	0.100
125.500	-9.675	0.100
125.600	-12.228	0.100
125.700	-7.509	0.100
125.800	-18.611	0.100
125.900	-19.101	0.100
126.000	2.915	0.100
126.100	-5.727	0.100
126.200	-7.997	0.100
126.300	-14.245	0.100
126.400	-6.342	0.100
126.500	-3.343	0.100
126.600	-14.834	0.100
126.700	-9.251	0.100
126.800	-29.905	0.100
126.900	-14.318	0.100
127.000	-5.383	0.100
127.100	0.852	0.100
127.200	-20.520	0.100
127.300	0.710	0.100
127.400	-14.372	0.100
127.500	-16.220	0.100
127.600	-1.342	0.100
127.700	-5.669	0.100
127.800	-3.297	0.100
127.900	-26.185	0.100
128.000	-23.618	0.100
128.100	0.412	0.100
128.200	2.056	0.100
128.300	-15.658	0.100
128.400	-4.320	0.100
128.500	0.704	0.100
128.600	7.514	0.100
128.700	-3.794	0.100
128.800	-4.402	0.100
128.900	-2.124	0.100
129.000	-27.336	0.100
129.100	0.443	0.100
129.200	-10.160	0.100
129.300	-15.924	0.100
129.400	-2.289	0.100
129.500	-19.397	0.100
129.600	-20.242	0.100
129.700	-17.015	0.100
129.800	-3.154	0.100
129.900	-24.406	0.100
130.000	-1.230	0.100
130.100	-11.113	0.100
130.200	5.539	0.100
130.300	-3.090	0.100
130.400	-9.005	0.100
130.500	-12.789	0.100
130.600	-6.181	0.100
130.700	-3.035	0.100
130.800	-11.027	0.100
130.900	-0.669	0.100
131.000	-2.282	0.100
131.100	-12.011	0.100
131.200	-11.197	0.100
131.300	-14.223	0.100
131.400	1.555	0.100
131.500	-7.501	0.100
131.600	-7.751	0.100
131.700	-3.893	0.100
131.800	-7.712	0.100
131.900	-0.877	0.100
132.000	-29.700	0.100
132.100	-11.214	0.100
132.200	-21.700	0.100
132.300	-4.501	0.100
132.400	-5.348	0.100
132.500	-7.054	0.100
132.600	-31.835	0.100
132.700	-3.353	0.100
132.800	-4.906	0.100
132.900	-9.340	0.100
133.000	2.130	0.100
133.100	-17.850	0.100
133.200	-3.207	0.100
133.300	-8.299	0.100
133.400	-0.848	0.100
133.500	-12.865	0.100
133.600	-5.404	0.100
133.700	-10.198	0.100
133.800	-10.493	0.100
133.900	-17.262	0.100
134.000	-10.091	0.100
134.100	-7.250	0.100
134.200	-15.856	0.100
134.300	-6.902	0.100
134.400	-11.865	0.100
134.500	-19.813	0.100
134.600	-12.791	0.100
134.700	-5.159	0.100
134.800	-10.970	0.100
134.900	-18.184	0.100
135.000	5.171	0.100
135.100	-6.473	0.100
135.200	-6.863	0.100
135.300	-6.599	0.100
135.400	-10.824	0.100
135.500	-16.699	0.100
135.600	-8.223	0.100
135.700	-1.667	0.100
135.800	-5.261	0.100
135.900	-4.191	0.100
136.000	-6.153	0.100
136.100	-2.908	0.100
136.200	3.139	0.100
136.300	-8.038	0.100
136.400	-14.286	0.100
136.500	-8.124	0.100
136.600	-6.759	0.100
136.700	-4.222	0.100
136.800	-14.330	0.100
136.900	-23.483	0.100
137.000	1.696	0.100
137.100	-10.883	0.100
137.200	-15.201	0.100
137.300	-14.392	0.100
137.400	-7.112	0.100
137.500	-13.986	0.100
137.600	-2.629	0.100
137.700	-6.272	0.100
137.800	4.473	0.100
137.900	-5.399	0.100
138.000	-15.859	0.100
138.100	-5.269	0.100
138.200	-9.359	0.100
138.300	-19.428	0.100
138.400	-2.874	0.100
138.500	-4.293	0.100
138.600	-6.527	0.100
138.700	-5.916	0.100
138.800	-27.390	0.100
138.900	-16.885	0.100
139.000	0.435	0.100
139.100	-4.291	0.100
139.200	-3.196	0.100
139.300	-7.853	0.100
139.400	-40.467	0.100
139.500	-23.696	0.100
139.600	-18.966	0.100
139.700	1.054	0.100
139.800	2.620	0.100
139.900	-10.911	0.100
140.000	-8.305	0.100
140.100	-5.300	0.100
140.200	-20.403	0.100
140.300	-5.190	0.100
140.400	-19.462	0.100
140.500	-26.845	0.100
140.600	-8.158	0.100
140.700	0.395	0.100
140.800	-3.079	0.100
140.900	-12.258	0.100
141.000	-15.745	0.100
141.100	16.050	0.100
141.200	-11.940	0.100
141.300	-0.976	0.100
141.400	-7.381	0.100
141.500	11.858	0.100
141.600	-12.360	0.100
141.700	5.170	0.100
141.800	-13.191	0.100
141.900	-2.654	0.100
142.000	-16.251	0.100
142.100	-11.433	0.100
142.200	3.923	0.100
142.300	-1.459	0.100
142.400	-28.025	0.100
142.500	-8.051	0.100
142.600	-13.506	0.100
142.700	-1.885	0.100
142.800	-8.597	0.100
142.900	-9.126	0.100
143.000	-12.924	0.100
143.100	-14.215	0.100
143.200	-0.447	0.100
143.300	-12.374	0.100
143.400	0.649	0.100
143.500	6.874	0.100
143.600	-16.596	0.100
143.700	-13.387	0.100
143.800	-2.654	0.100
143.900	-15.750	0.100
144.000	-25.763	0.100
144.100	-8.077	0.100
144.200	4.186	0.100
144.300	-5.891	0.100
144.400	-16.093	0.100
144.500	-7.511	0.100
144.600	-2.598	0.100
144.700	-5.236	0.100
144.800	-20.751	0.100
144.900	-19.580	0.100
145.000	-26.889	0.100
145.100	-12.023	0.100
145.200	11.073	0.100
145.300	-20.495	0.100
145.400	-4.769	0.100
145.500	-8.281	0.100
145.600	-1.759	0.100
145.700	-9.384	0.100
145.800	-26.845	0.100
145.900	-10.629	0.100
146.000	-8.711	0.100
146.100	-4.346	0.100
146.200	-6.863	0.100
146.300	-1.870	0.100
146.400	-21.228	0.100
146.500	-7.619	0.100
146.600	-11.285	0.100
146.700	-9.330	0.100
146.800	-9.855	0.100
146.900	-10.910	0.100
147.000	10.234	0.100
147.100	-21.948	0.100
147.200	-14.355	0.100
147.300	-37.627	0.100
147.400	-5.429	0.100
147.500	6.414	0.100
147.600	-2.908	0.100
147.700	-15.113	0.100
147.800	-0.224	0.100
147.900	0.358	0.100
148.000	-2.588	0.100
148.100	-4.873	0.100
148.200	-24.843	0.100
148.300	-14.122	0.100
148.400	-19.833	0.099
148.500	-7.914	0.099
148.600	-7.867	0.099
148.700	-16.751	0.099
148.800	-1.961	0.099
148.900	-4.046	0.099
149.000	-21.566	0.099
149.100	8.901	0.099
149.200	-14.231	0.099
149.300	-12.235	0.099
149.400	4.911	0.099
149.500	-9.696	0.099
149.600	-7.813	0.099
149.700	-16.280	0.099
149.800	-15.502	0.099
149.900	-13.394	0.099
150.000	-14.930	0.099
150.100	-26.232	0.099
150.200	-0.708	0.099
150.300	6.703	0.099
150.400	-10.184	0.099
150.500	-8.990	0.099
150.600	-4.385	0.099
150.700	-23.023	0.099
150.800	-1.780	0.099
150.900	-5.643	0.099
151.000	-9.610	0.099
151.100	-7.052	0.099
151.200	-20.419	0.099
151.300	-0.672	0.099
151.400	-5.300	0.099
151.500	-3.805	0.099
151.600	-8.919	0.099
151.700	-17.123	0.099
151.800	-4.846	0.099
151.900	-13.280	0.099
152.000	-10.374	0.099
152.100	-11.790	0.099
152.200	-9.291	0.099
152.300	-25.425	0.099
152.400	-2.566	0.099
152.500	-1.885	0.099
152.600	0.676	0.099
152.700	-12.625	0.099
152.800	-22.290	0.099
152.900	-14.850	0.099
153.000	5.471	0.099
153.100	-20.185	0.099
153.200	13.315	0.099
153.300	2.449	0.099
153.400	-1.841	0.099
153.500	2.274	0.099
153.600	-30.101	0.099
153.700	-1.735	0.099
153.800	-22.581	0.099
153.900	-8.524	0.099
154.000	-7.536	0.099
154.100	13.847	0.099
154.200	-12.969	0.099
154.300	-15.059	0.099
154.400	-9.698	0.099
154.500	-24.885	0.099
154.600	-7.415	0.099
154.700	3.734	0.099
154.800	-19.557	0.099
154.900	-12.839	0.099
155.000	-19.415	0.099
155.100	-21.478	0.099
155.200	-11.788	0.099
155.300	-22.277	0.099
155.400	-18.738	0.099
155.500	12.114	0.099
155.600	-21.287	0.099
155.700	-1.450	0.099
155.800	-16.491	0.099
155.900	-7.034	0.099
156.000	-4.418	0.099
156.100	-14.585	0.099
156.200	-11.200	0.099
156.300	-17.583	0.099
156.400	-6.469	0.099
156.500	2.756	0.099
156.600	-19.197	0.099
156.700	-3.338	0.099
156.800	-7.973	0.099
156.900	-29.429	0.099
157.000	-2.703	0.099
157.100	-25.302	0.099
157.200	-22.218	0.099
157.300	-12.661	0.099
157.400	-12.093	0.099
157.500	8.690	0.099
157.600	-6.130	0.099
157.700	-2.860	0.099
157.800	-22.711	0.099
157.900	-0.856	0.099
158.000	-2.446	0.099
158.100	-10.114	0.099
158.200	-12.329	0.099
158.300	-4.734	0.099
158.400	-13.436	0.099
158.500	-15.724	0.099
158.600	0.069	0.099
158.700	-22.086	0.099
158.800	-11.464	0.099
158.900	-10.314	0.099
159.000	-14.261	0.099
159.100	-4.840	0.099
159.200	-7.313	0.099
159.300	-23.064	0.099
159.400	-8.499	0.099
159.500	-9.927	0.099
159.600	-4.621	0.099
159.700	-23.189	0.099
159.800	-16.583	0.099
159.900	-17.128	0.099
160.000	-5.156	0.099
160.100	-6.522	0.099
160.200	-8.616	0.099
160.300	-2.349	0.099
160.400	-1.288	0.099
160.500	-13.749	0.099
160.600	-8.733	0.099
160.700	-7.815	0.099
160.800	-15.475	0.099
160.900	-7.422	0.099
161.000	2.742	0.099
161.100	-9.465	0.099
161.200	-24.491	0.099
161.300	-9.710	0.099
161.400	-0.628	0.099
161.500	-4.391	0.099
161.600	-11.835	0.099
161.700	4.008	0.099
161.800	-11.875	0.099
161.900	-16.977	0.099
162.000	-10.926	0.099
162.100	2.041	0.099
162.200	-13.490	0.099
162.300	-15.794	0.099
162.400	-24.148	0.099
162.500	-5.773	0.099
162.600	-14.388	0.099
162.700	-6.984	0.099
162.800	-12.960	0.099
162.900	4.686	0.099
163.000	-23.309	0.099
163.100	-6.009	0.099
163.200	-10.828	0.099
163.300	-13.373	0.099
163.400	-12.450	0.099
163.500	-19.496	0.099
163.600	3.755	0.099
163.700	-8.283	0.099
163.800	-8.627	0.099
163.900	-7.869	0.099
164.000	-10.825	0.099
164.100	-5.953	0.099
164.200	-7.774	0.099
164.300	-11.264	0.099
164.400	-16.074	0.099
164.500	-5.779	0.099
164.600	-9.894	0.099
164.700	-2.789	0.099
164.800	-11.517	0.099
164.900	-24.681	0.099
165.000	-3.301	0.099
165.100	-14.328	0.099
165.200	-11.536	0.099
165.300	-7.261	0.099
165.400	-13.449	0.099
165.500	-8.902	0.099
165.600	-15.012	0.099
165.700	-7.200	0.099
165.800	-9.298	0.099
165.900	-15.325	0.099
166.000	-8.578	0.099
166.100	1.523	0.099
166.200	-20.649	0.099
166.300	-1.015	0.099
166.400	-12.161	0.099
166.500	-7.123	0.099
166.600	-13.522	0.099
166.700	-2.437	0.099
166.800	-35.926	0.099
166.900	-0.154	0.099
167.000	-3.695	0.099
167.100	-5.410	0.099
167.200	-24.196	0.099
167.300	-15.372	0.099
167.400	4.549	0.099
167.500	-0.772	0.099
167.600	2.443	0.099
167.700	-10.393	0.099
167.800	-5.641	0.099
167.900	-13.212	0.099
168.000	-14.254	0.099
168.100	-13.466	0.099
168.200	-4.387	0.099
168.300	-6.649	0.099
168.400	-20.239	0.100
168.500	-2.346	0.099
168.600	-12.642	0.099
168.700	-16.016	0.100
168.800	-12.200	0.100
168.900	-7.609	0.100
169.000	4.148	0.100
169.100	0.257	0.100
169.200	-13.649	0.100
169.300	-10.848	0.100
169.400	-7.065	0.100
169.500	-0.612	0.100
169.600	-11.694	0.100
169.700	-11.729	0.100
169.800	-10.132	0.100
169.900	-14.177	0.100
170.000	-6.771	0.100
170.100	-0.258	0.100
170.200	-12.246	0.100
170.300	-2.280	0.100
170.400	-17.412	0.100
170.500	-11.930	0.100
170.600	0.121	0.099
170.700	-3.682	0.099
170.800	-6.806	0.099
170.900	-40.947	0.099
171.000	-16.036	0.099
171.100	-11.870	0.099
171.200	-18.692	0.099
171.300	-10.141	0.099
171.400	-8.143	0.099
171.500	2.986	0.099
171.600	-8.799	0.099
171.700	-17.738	0.099
171.800	-4.982	0.100
171.900	-5.091	0.099
172.000	-5.413	0.099
172.100	-5.431	0.099
172.200	-6.739	0.099
172.300	-0.909	0.099
172.400	-19.263	0.100
172.500	-15.659	0.100
172.600	-0.754	0.099
172.700	0.177	0.099
172.800	-14.509	0.099
172.900	-14.432	0.100
173.000	1.131	0.100
173.100	-12.621	0.100
173.200	-31.940	0.100
173.300	-8.272	0.099
173.400	4.068	0.099
173.500	-18.597	0.099
173.600	-12.429	0.099
173.700	3.338	0.100
173.800	-1.017	0.099
173.900	-13.664	0.100
174.000	-19.259	0.100
174.100	-1.050	0.100
174.200	-0.738	0.099
174.300	-9.742	0.099
174.400	-4.620	0.100
174.500	-16.587	0.099
174.600	-6.748	0.100
174.700	-7.409	0.100
174.800	-7.066	0.099
174.900	-1.545	0.100
175.000	-3.613	0.099
175.100	-22.886	0.099
175.200	-11.231	0.099
175.300	-9.788	0.100
175.400	-7.887	0.099
175.500	-10.348	0.100
175.600	-8.487	0.099
175.700	3.207	0.100
175.800	-14.027	0.100
175.900	-2.259	0.100
176.000	-14.216	0.100
176.100	-14.010	0.099
176.200	13.423	0.099
176.300	-10.202	0.100
176.400	-1.250	0.099
176.500	-23.006	0.100
176.600	-16.425	0.099
176.700	-18.616	0.100
176.800	-6.783	0.100
176.900	-8.853	0.100
177.000	-21.284	0.100
177.100	-9.630	0.099
177.200	-5.972	0.099
177.300	-6.339	0.100
177.400	-15.928	0.099
177.500	5.101	0.100
177.600	-1.027	0.099
177.700	-8.929	0.099
177.800	-1.735	0.100
177.900	0.935	0.100
178.000	-10.621	0.100
178.100	-15.066	0.099
178.200	-4.493	0.099
178.300	-11.123	0.100
178.400	-11.372	0.100
178.500	-10.573	0.099
178.600	-11.515	0.099
178.700	-12.026	0.099
178.800	-2.302	0.100
178.900	-2.078	0.100
179.000	-6.723	0.100
179.100	-5.146	0.099
179.200	-13.393	0.099
179.300	-25.402	0.099
179.400	-15.685	0.100
179.500	2.707	0.100
179.600	-7.593	0.100
179.700	-15.037	0.100
179.800	0.166	0.100
179.900	-17.394	0.100
180.000	-9.100	0.100
180.100	-11.419	0.099
180.200	-17.340	0.100
180.300	-2.869	0.099
180.400	-2.298	0.100
180.500	-23.456	0.099
180.600	-1.718	0.100
180.700	-9.828	0.100
180.800	-15.654	0.100
180.900	-14.769	0.100
181.000	0.396	0.100
181.100	-4.960	0.100
181.200	1.250	0.100
181.300	-2.604	0.100
181.400	-9.981	0.100
181.500	0.396	0.100
181.600	-0.786	0.099
181.700	-4.486	0.099
181.800	1.952	0.100
181.900	2.513	0.099
182.000	1.712	0.100
182.100	-4.212	0.100
182.200	10.054	0.100
182.300	15.298	0.100
182.400	5.821	0.100
182.500	9.549	0.100
182.600	6.928	0.100
182.700	14.042	0.100
182.800	-5.920	0.100
182.900	19.537	0.100
183.000	7.931	0.100
183.100	15.829	0.100
183.200	17.051	0.099
183.300	9.070	0.099
183.400	15.593	0.100
183.500	6.332	0.100
183.600	7.002	0.100
183.700	9.467	0.100
183.800	15.757	0.100
183.900	6.860	0.100
184.000	6.427	0.100
184.100	13.278	0.100
184.200	0.136	0.100
184.300	13.149	0.100
184.400	28.617	0.100
184.500	3.899	0.100
184.600	2.717	0.100
184.700	20.623	0.100
184.800	2.655	0.100
184.900	6.036	0.099
185.000	11.620	0.099
185.100	15.820	0.100
185.200	14.663	0.100
185.300	14.583	0.099
185.400	12.538	0.099
185.500	3.918	0.100
185.600	18.520	0.099
185.700	2.841	0.100
185.800	5.546	0.099
185.900	-3.895	0.100
186.000	3.891	0.100
186.100	1.694	0.099
186.200	10.767	0.100
186.300	1.384	0.100
186.400	8.555	0.100
186.500	-19.375	0.099
186.600	6.131	0.099
186.700	7.644	0.100
186.800	-1.066	0.100
186.900	10.316	0.100
187.000	12.413	0.100
187.100	8.601	0.100
187.200	5.503	0.100
187.300	4.069	0.100
187.400	8.190	0.100
187.500	13.486	0.099
187.600	0.600	0.100
187.700	1.074	0.100
187.800	-5.335	0.099
187.900	25.318	0.100
188.000	14.822	0.100
188.100	12.513	0.099
188.200	-21.421	0.100
188.300	18.457	0.099
188.400	-3.715	0.100
188.500	-9.311	0.099
188.600	12.825	0.100
188.700	-7.321	0.100
188.800	8.270	0.100
188.900	0.387	0.100
189.000	-2.948	0.100
189.100	-4.655	0.100
189.200	5.876	0.100
189.300	2.380	0.100
189.400	19.612	0.100
189.500	-3.048	0.100
189.600	16.178	0.100
189.700	18.387	0.100
189.800	4.258	0.100
189.900	-4.979	0.100
190.000	11.634	0.100
190.100	12.751	0.100
190.200	8.092	0.100
190.300	8.693	0.100
190.400	9.318	0.100
190.500	5.284	0.100
190.600	8.829	0.100
190.700	-5.275	0.099
190.800	1.035	0.100
190.900	29.175	0.100
191.000	12.056	0.100
191.100	3.905	0.100
191.200	7.252	0.100
191.300	10.399	0.100
191.400	16.433	0.100
191.500	-2.856	0.099
191.600	-2.853	0.100
191.700	7.994	0.100
191.800	25.251	0.100
191.900	4.025	0.100
192.000	-1.472	0.100
192.100	16.314	0.100
192.200	-4.098	0.099
192.300	5.661	0.100
192.400	11.038	0.099
192.500	8.625	0.100
192.600	19.665	0.100
192.700	10.966	0.099
192.800	20.949	0.100
192.900	8.289	0.100
193.000	21.640	0.099
193.100	0.503	0.099
193.200	19.999	0.100
193.300	14.821	0.100
193.400	12.733	0.099
193.500	38.072	0.100
193.600	11.502	0.100
193.700	9.028	0.100
193.800	13.374	0.100
193.900	17.468	0.100
194.000	5.723	0.100
194.100	10.526	0.100
194.200	-1.115	0.099
194.300	8.250	0.100
194.400	15.081	0.100
194.500	19.698	0.100
194.600	31.785	0.100
194.700	6.193	0.100
194.800	11.854	0.100
194.900	17.166	0.100
195.000	10.861	0.099
195.100	16.850	0.100
195.200	28.014	0.100
195.300	-2.719	0.100
195.400	16.807	0.100
195.500	21.168	0.100
195.600	21.671	0.100
195.700	24.059	0.100
195.800	40.178	0.099
195.900	25.484	0.100
196.000	25.071	0.100
196.100	30.231	0.100
196.200	39.535	0.100
196.300	-1.786	0.100
196.400	19.384	0.100
196.500	23.998	0.100
196.600	35.038	0.100
196.700	6.569	0.100
196.800	10.937	0.099
196.900	39.747	0.099
197.000	36.776	0.100
197.100	26.645	0.099
197.200	9.628	0.100
197.300	23.777	0.099
197.400	29.954	0.100
197.500	23.632	0.100
197.600	17.809	0.100
197.700	20.482	0.100
197.800	25.686	0.100
197.900	28.068	0.100
198.000	30.609	0.100
198.100	30.425	0.100
198.200	28.248	0.100
198.300	27.026	0.100
198.400	17.711	0.100
198.500	35.176	0.100
198.600	23.220	0.100
198.700	24.856	0.100
198.800	35.988	0.100
198.900	31.154	0.100
199.000	21.538	0.100
199.100	18.649	0.100
199.200	31.248	0.100
199.300	30.636	0.099
199.400	22.888	0.100
199.500	38.142	0.100
199.600	33.392	0.100
199.700	11.371	0.100
199.800	23.096	0.100
199.900	51.122	0.100
200.000	30.900	0.100
200.100	28.225	0.100
200.200	26.338	0.100
200.300	26.187	0.100
200.400	30.911	0.100
200.500	27.036	0.100
200.600	41.333	0.100
200.700	32.374	0.100
200.800	52.076	0.100
200.900	31.639	0.099
201.000	18.052	0.100
201.100	32.856	0.100
201.200	20.512	0.100
201.300	20.113	0.100
201.400	24.885	0.100
201.500	33.097	0.100
201.600	30.836	0.100
201.700	39.264	0.100
201.800	18.029	0.099
201.900	23.178	0.100
202.000	28.999	0.100
202.100	40.665	0.100
202.200	26.460	0.100
202.300	22.401	0.099
202.400	36.333	0.100
202.500	28.074	0.100
202.600	30.760	0.100
202.700	25.993	0.099
202.800	16.069	0.100
202.900	35.915	0.100
203.000	34.032	0.100
203.100	22.118	0.100
203.200	22.807	0.100
203.300	39.886	0.100
203.400	33.413	0.100
203.500	33.036	0.100
203.600	29.925	0.100
203.700	30.921	0.100
203.800	17.838	0.100
203.900	24.652	0.100
204.000	26.387	0.100
204.100	31.718	0.100
204.200	33.095	0.100
204.300	27.082	0.100
204.400	29.441	0.100
204.500	25.871	0.099
204.600	43.765	0.100
204.700	35.733	0.100
204.800	36.100	0.100
204.900	32.816	0.100
205.000	20.285	0.100
205.100	39.755	0.100
205.200	24.015	0.100
205.300	30.474	0.100
205.400	23.831	0.100
205.500	26.020	0.100
205.600	29.925	0.100
205.700	33.633	0.100
205.800	34.354	0.100
205.900	39.923	0.100
206.000	19.445	0.100
206.100	22.627	0.100
206.200	29.023	0.100
206.300	24.390	0.100
206.400	30.128	0.100
206.500	17.479	0.100
206.600	25.117	0.100
206.700	23.334	0.100
206.800	41.380	0.100
206.900	43.554	0.100
207.000	24.938	0.100
207.100	41.432	0.100
207.200	35.857	0.100
207.300	23.703	0.100
207.400	47.904	0.100
207.500	29.744	0.100
207.600	27.037	0.100
207.700	20.621	0.100
207.800	26.570	0.100
207.900	43.252	0.100
208.000	31.899	0.100
208.100	12.819	0.100
208.200	33.639	0.100
208.300	38.903	0.100
208.400	31.073	0.100
208.500	19.887	0.099
208.600	25.786	0.100
208.700	21.447	0.100
208.800	47.948	0.100
208.900	24.498	0.100
209.000	30.608	0.100
209.100	22.152	0.100
209.200	22.355	0.100
209.300	28.955	0.100
209.400	30.978	0.100
209.500	28.533	0.099
209.600	28.278	0.100
209.700	48.104	0.100
209.800	17.759	0.100
209.900	30.300	0.100
210.000	8.512	0.100
210.100	14.501	0.100
210.200	25.942	0.100
210.300	25.914	0.100
210.400	25.561	0.100
210.500	32.829	0.100
210.600	23.221	0.100
210.700	41.687	0.100
210.800	31.221	0.100
210.900	29.338	0.100
211.000	23.683	0.100
211.100	31.064	0.100
211.200	26.432	0.100
211.300	24.046	0.100
211.400	11.862	0.100
211.500	20.541	0.100
211.600	26.178	0.100
211.700	29.962	0.100
211.800	28.776	0.100
211.900	33.697	0.100
212.000	20.875	0.100
212.100	17.753	0.100
212.200	13.385	0.100
212.300	33.754	0.100
212.400	29.703	0.100
212.500	34.397	0.100
212.600	31.345	0.099
212.700	6.973	0.100
212.800	42.696	0.100
212.900	30.606	0.100
213.000	32.500	0.100
213.100	35.981	0.100
213.200	36.219	0.099
213.300	6.785	0.100
213.400	37.501	0.100
213.500	36.826	0.100
213.600	21.275	0.100
213.700	17.176	0.100
213.800	35.311	0.100
213.900	33.656	0.100
214.000	18.109	0.100
214.100	39.223	0.100
214.200	32.934	0.100
214.300	28.550	0.100
214.400	47.233	0.100
214.500	16.566	0.100
214.600	38.532	0.100
214.700	32.557	0.099
214.800	28.398	0.100
214.900	31.914	0.100
215.000	19.707	0.100
215.100	31.904	0.100
215.200	30.397	0.099
215.300	18.258	0.100
215.400	34.752	0.100
215.500	41.918	0.099
215.600	20.798	0.100
215.700	39.943	0.100
215.800	24.941	0.100
215.900	37.891	0.100
216.000	26.590	0.100
216.100	34.629	0.100
216.200	32.872	0.100
216.300	16.462	0.100
216.400	25.511	0.100
216.500	34.661	0.099
216.600	25.203	0.099
216.700	10.920	0.100
216.800	24.112	0.100
216.900	29.467	0.100
217.000	36.490	0.099
217.100	45.612	0.100
217.200	29.884	0.100
217.300	26.449	0.100
217.400	54.445	0.100
217.500	34.957	0.100
217.600	31.895	0.100
217.700	17.272	0.100
217.800	16.703	0.100
217.900	41.383	0.100
218.000	26.947	0.100
218.100	11.367	0.100
218.200	39.808	0.100
218.300	40.198	0.100
218.400	30.852	0.100
218.500	34.980	0.100
218.600	29.900	0.100
218.700	13.887	0.100
218.800	33.689	0.100
218.900	27.475	0.100
219.000	30.863	0.100
219.100	24.585	0.100
219.200	25.194	0.100
219.300	24.981	0.100
219.400	23.899	0.100
219.500	36.352	0.100
219.600	38.877	0.100
219.700	28.496	0.099
219.800	45.379	0.100
219.900	31.360	0.100
220.000	25.678	0.100
220.100	28.231	0.100
220.200	25.821	0.100
220.300	30.841	0.100
220.400	17.004	0.100
220.500	39.995	0.100
220.600	28.700	0.100
220.700	16.097	0.100
220.800	28.647	0.100
220.900	47.532	0.100
221.000	26.042	0.100
221.100	28.993	0.100
221.200	46.091	0.100
221.300	23.040	0.100
221.400	31.215	0.100
221.500	21.490	0.100
221.600	27.013	0.100
221.700	38.523	0.100
221.800	24.688	0.099
221.900	28.559	0.100
222.000	27.681	0.100
222.100	25.736	0.100
222.200	26.237	0.100
222.300	19.703	0.099
222.400	16.171	0.100
222.500	29.465	0.100
222.600	29.690	0.100
222.700	14.895	0.100
222.800	23.010	0.100
222.900	32.627	0.100
223.000	30.942	0.100
223.100	28.837	0.100
223.200	29.351	0.100
223.300	24.344	0.100
223.400	9.155	0.100
223.500	23.798	0.100
223.600	12.892	0.099
223.700	24.600	0.100
223.800	35.060	0.099
223.900	24.270	0.100
224.000	42.276	0.099
224.100	9.514	0.100
224.200	24.508	0.100
224.300	21.700	0.100
224.400	24.724	0.100
224.500	26.516	0.100
224.600	33.163	0.100
224.700	28.668	0.100
224.800	32.086	0.100
224.900	13.191	0.100
225.000	25.769	0.099
225.100	49.507	0.100
225.200	25.946	0.100
225.300	24.408	0.100
225.400	31.725	0.100
225.500	31.317	0.100
225.600	29.248	0.100
225.700	31.618	0.100
225.800	14.389	0.100
225.900	33.335	0.100
226.000	23.871	0.100
226.100	23.728	0.099
226.200	26.837	0.100
226.300	33.025	0.100
226.400	40.074	0.100
226.500	35.031	0.100
226.600	24.780	0.100
226.700	22.859	0.099
226.800	22.205	0.100
226.900	28.252	0.100
227.000	25.330	0.100
227.100	15.951	0.100
227.200	38.628	0.100
227.300	44.661	0.100
227.400	22.361	0.100
227.500	26.029	0.100
227.600	4.383	0.099
227.700	23.037	0.099
227.800	39.973	0.100
227.900	46.039	0.100
228.000	31.314	0.100
228.100	34.650	0.100
228.200	16.181	0.100
228.300	31.495	0.100
228.400	10.330	0.100
228.500	28.624	0.100
228.600	24.349	0.100
228.700	26.124	0.100
228.800	21.597	0.100
228.900	30.973	0.100
229.000	15.195	0.099
229.100	38.851	0.100
229.200	28.386	0.100
229.300	41.453	0.099
229.400	16.782	0.100
229.500	33.060	0.100
229.600	55.859	0.099
229.700	24.883	0.100
229.800	23.052	0.100
229.900	8.798	0.100
230.000	44.235	0.100
230.100	24.292	0.100
230.200	36.081	0.099
230.300	19.345	0.100
230.400	38.031	0.100
230.500	24.709	0.100
230.600	23.762	0.100
230.700	28.313	0.100
230.800	35.448	0.100
230.900	21.085	0.099
231.000	21.039	0.100
231.100	28.652	0.100
231.200	11.394	0.100
231.300	31.289	0.100
231.400	22.706	0.100
231.500	30.926	0.100
231.600	17.254	0.100
231.700	28.687	0.100
231.800	26.931	0.100
231.900	36.896	0.100
232.000	21.872	0.100
232.100	40.606	0.100
232.200	27.857	0.100
232.300	33.903	0.100
232.400	17.078	0.100
232.500	8.407	0.100
232.600	26.648	0.099
232.700	27.682	0.100
232.800	26.772	0.099
232.900	29.713	0.100
233.000	26.786	0.100
233.100	28.973	0.100
233.200	32.610	0.100
233.300	31.192	0.100
233.400	45.102	0.100
233.500	19.899	0.100
233.600	15.829	0.100
233.700	20.505	0.100
233.800	45.380	0.100
233.900	7.261	0.100
234.000	30.070	0.100
234.100	34.521	0.100
234.200	39.222	0.100
234.300	12.856	0.099
234.400	23.195	0.100
234.500	21.315	0.100
234.600	30.837	0.100
234.700	29.659	0.100
234.800	27.534	0.100
234.900	7.596	0.100
235.000	17.271	0.100
235.100	37.541	0.100
235.200	31.211	0.100
235.300	32.531	0.100
235.400	21.482	0.100
235.500	21.990	0.100
235.600	30.732	0.099
235.700	45.858	0.100
235.800	18.199	0.100
235.900	11.048	0.100
236.000	32.474	0.100
236.100	18.933	0.100
236.200	29.275	0.100
236.300	29.796	0.100
236.400	23.077	0.100
236.500	33.842	0.100
236.600	29.531	0.100
236.700	14.910	0.100
236.800	30.856	0.100
236.900	33.984	0.100
237.000	24.839	0.100
237.100	40.509	0.099
237.200	6.872	0.100
237.300	31.137	0.100
237.400	30.912	0.100
237.500	31.590	0.100
237.600	21.565	0.100
237.700	22.008	0.100
237.800	45.162	0.100
237.900	7.036	0.100
238.000	40.873	0.100
238.100	32.176	0.100
238.200	28.567	0.100
238.300	13.543	0.100
238.400	32.512	0.100
238.500	26.589	0.100
238.600	25.519	0.100
238.700	19.711	0.100
238.800	34.014	0.100
238.900	30.287	0.099
239.000	23.787	0.100
239.100	21.164	0.100
239.200	33.860	0.100
239.300	50.003	0.100
239.400	8.779	0.100
239.500	30.500	0.100
239.600	26.943	0.099
239.700	23.861	0.100
239.800	13.618	0.100
239.900	24.742	0.100
240.000	27.507	0.099
240.100	30.800	0.100
240.200	32.563	0.100
240.300	25.503	0.100
240.400	33.749	0.100
240.500	11.842	0.100
240.600	23.399	0.100
240.700	35.834	0.099
240.800	24.725	0.100
240.900	30.896	0.100
241.000	23.167	0.100
241.100	24.723	0.100
241.200	33.974	0.100
241.300	15.150	0.100
241.400	6.177	0.100
241.500	19.923	0.100
241.600	22.592	0.100
241.700	16.666	0.099
241.800	17.295	0.100
241.900	9.814	0.100
242.000	13.744	0.100
242.100	12.188	0.099
242.200	1.851	0.100
242.300	22.959	0.100
242.400	16.364	0.100
242.500	13.519	0.100
242.600	15.939	0.100
242.700	3.282	0.100
242.800	9.611	0.100
242.900	12.160	0.100
243.000	-8.713	0.100
243.100	1.463	0.100
243.200	14.808	0.100
243.300	6.357	0.100
243.400	9.428	0.100
243.500	19.221	0.100
243.600	-0.405	0.100
243.700	-13.596	0.100
243.800	2.906	0.100
243.900	0.878	0.100
244.000	5.573	0.099
244.100	20.759	0.100
244.200	4.656	0.100
244.300	1.292	0.100
244.400	12.881	0.100
244.500	9.419	0.100
244.600	10.713	0.100
244.700	4.424	0.100
244.800	8.136	0.100
244.900	9.308	0.100
245.000	-17.440	0.100
245.100	-1.103	0.100
245.200	6.678	0.100
245.300	9.174	0.100
245.400	3.536	0.099
245.500	7.004	0.100
245.600	2.914	0.100
245.700	-4.513	0.099
245.800	9.146	0.100
245.900	5.730	0.099
246.000	9.350	0.100
246.100	-11.573	0.099
246.200	20.635	0.099
246.300	3.023	0.100
246.400	-16.141	0.099
246.500	0.621	0.100
246.600	3.743	0.099
246.700	4.500	0.099
246.800	0.876	0.100
246.900	-0.460	0.100
247.000	-0.869	0.100
247.100	-18.267	0.100
247.200	-10.680	0.100
247.300	4.643	0.099
247.400	5.778	0.100
247.500	-7.673	0.100
247.600	-0.608	0.099
247.700	-5.236	0.100
247.800	5.114	0.100
247.900	8.722	0.100
248.000	-0.023	0.100
248.100	0.981	0.100
248.200	-3.426	0.099
248.300	7.712	0.100
248.400	9.583	0.100
248.500	-9.296	0.100
248.600	-0.485	0.100
248.700	-7.023	0.099
248.800	-1.591	0.100
248.900	-10.672	0.099
249.000	15.896	0.100
249.100	4.326	0.100
249.200	-1.534	0.100
249.300	5.254	0.100
249.400	-10.855	0.100
249.500	12.669	0.100
249.600	0.854	0.100
249.700	13.223	0.100
249.800	-21.135	0.100
249.900	5.132	0.100
250.000	1.654	0.100
250.100	-7.056	0.100
250.200	11.824	0.099
250.300	-15.006	0.099
250.400	0.912	0.100
250.500	-6.342	0.100
250.600	-6.588	0.100
250.700	-12.216	0.100
250.800	4.095	0.099
250.900	-5.958	0.099
251.000	-3.475	0.100
251.100	-1.905	0.100
251.200	-5.036	0.100
251.300	-2.803	0.100
251.400	-1.526	0.100
251.500	-4.010	0.100
251.600	-8.317	0.100
251.700	-5.710	0.100
251.800	5.633	0.100
251.900	4.692	0.100
252.000	-1.154	0.100
252.100	1.319	0.100
252.200	0.013	0.100
252.300	-1.245	0.100
252.400	-0.496	0.099
252.500	-17.784	0.100
252.600	16.825	0.100
252.700	2.998	0.100
252.800	-1.775	0.100
252.900	-9.770	0.100
253.000	-5.554	0.099
253.100	-4.337	0.100
253.200	-9.031	0.100
253.300	-7.758	0.100
253.400	0.034	0.099
253.500	7.196	0.099
253.600	-2.161	0.100
253.700	8.141	0.100
253.800	0.430	0.099
253.900	-19.383	0.099
254.000	4.183	0.100
254.100	-9.276	0.100
254.200	-10.029	0.099
254.300	-8.145	0.099
254.400	-13.284	0.099
254.500	-3.403	0.100
254.600	-6.207	0.100
254.700	18.928	0.100
254.800	6.861	0.100
254.900	-4.256	0.100
255.000	-0.566	0.100
255.100	4.572	0.100
255.200	-2.830	0.100
255.300	-11.696	0.100
255.400	-9.844	0.100
255.500	-2.985	0.100
255.600	-3.402	0.099
255.700	-9.387	0.100
255.800	0.955	0.100
255.900	-15.978	0.100
256.000	-6.688	0.100
256.100	10.018	0.100
256.200	-10.859	0.100
256.300	-2.401	0.100
256.400	-2.297	0.099
256.500	-0.312	0.100
256.600	0.652	0.100
256.700	-6.338	0.099
256.800	2.437	0.100
256.900	0.409	0.100
257.000	-15.739	0.099
257.100	-2.229	0.100
257.200	-9.988	0.099
257.300	1.208	0.100
257.400	-6.161	0.100
257.500	-7.560	0.100
257.600	-18.439	0.100
257.700	-6.626	0.100
257.800	-4.520	0.100
257.900	1.539	0.099
258.000	-15.360	0.100
258.100	-7.095	0.099
258.200	8.451	0.100
258.300	-4.552	0.100
258.400	-0.351	0.100
258.500	3.589	0.100
258.600	10.566	0.099
258.700	-15.320	0.100
258.800	-9.731	0.099
258.900	3.851	0.099
259.000	10.739	0.100
259.100	-4.408	0.100
259.200	-8.952	0.100
259.300	-9.214	0.100
259.400	-1.474	0.100
259.500	5.830	0.099
259.600	-8.889	0.099
259.700	-0.028	0.100
259.800	-17.042	0.099
259.900	-2.685	0.100
260.000	-19.732	0.099
260.100	-10.747	0.099
260.200	2.054	0.100
260.300	-3.219	0.099
260.400	-9.940	0.099
260.500	11.636	0.100
260.600	-9.202	0.100
260.700	-9.859	0.100
260.800	-7.513	0.100
260.900	-10.517	0.099
261.000	-1.211	0.099
261.100	-7.825	0.100
261.200	-11.285	0.099
261.300	6.840	0.099
261.400	-0.407	0.100
261.500	-5.849	0.100
261.600	-5.902	0.100
261.700	-14.014	0.099
261.800	-12.914	0.099
261.900	-15.306	0.099
262.000	4.912	0.099
262.100	-8.099	0.099
262.200	-14.136	0.099
262.300	12.333	0.099
262.400	-20.819	0.099
262.500	-10.555	0.099
262.600	-9.839	0.100
262.700	-22.246	0.100
262.800	-18.132	0.099
262.900	-8.537	0.099
263.000	-3.814	0.100
263.100	-10.583	0.099
263.200	-18.703	0.099
263.300	-10.902	0.099
263.400	-3.602	0.099
263.500	-0.630	0.099
263.600	-6.507	0.099
263.700	-10.489	0.099
263.800	-3.220	0.099
263.900	-11.479	0.099
264.000	-15.418	0.099
264.100	-3.017	0.099
264.200	-9.531	0.099
264.300	14.629	0.100
264.400	-6.806	0.099
264.500	-6.577	0.099
264.600	-33.203	0.100
264.700	-6.683	0.100
264.800	-5.042	0.099
264.900	-16.388	0.100
265.000	-18.353	0.100
265.100	3.807	0.099
265.200	-13.374	0.099
265.300	-10.998	0.099
265.400	-23.212	0.100
265.500	-22.094	0.099
265.600	-1.718	0.100
265.700	-9.729	0.099
265.800	-3.614	0.099
265.900	-6.753	0.099
266.000	-10.099	0.099
266.100	-4.704	0.099
266.200	-20.444	0.099
266.300	-1.604	0.100
266.400	-4.366	0.099
266.500	11.849	0.100
266.600	-9.278	0.100
266.700	-14.734	0.100
266.800	-20.356	0.099
266.900	-25.803	0.099
267.000	-21.627	0.100
267.100	9.779	0.099
267.200	-0.308	0.099
267.300	-13.955	0.099
267.400	-21.439	0.100
267.500	-7.641	0.099
267.600	-1.262	0.099
267.700	-9.030	0.099
267.800	-5.338	0.100
267.900	-16.299	0.099
268.000	-12.755	0.099
268.100	-4.566	0.099
268.200	-13.021	0.099
268.300	-10.427	0.099
268.400	-12.065	0.099
268.500	-8.838	0.099
268.600	-13.176	0.100
268.700	0.026	0.100
268.800	-18.302	0.099
268.900	-0.315	0.100
269.000	-10.236	0.100
269.100	-11.959	0.100
269.200	-12.678	0.099
269.300	-19.298	0.099
269.400	-18.365	0.100
269.500	-28.234	0.099
269.600	3.478	0.099
269.700	-12.363	0.100
269.800	-1.601	0.100
269.900	-11.735	0.099
270.000	-3.044	0.099
270.100	-31.288	0.100
270.200	-7.650	0.100
270.300	-15.020	0.099
270.400	-7.980	0.100
270.500	3.643	0.099
270.600	-12.227	0.099
270.700	-11.239	0.100
270.800	-21.834	0.099
270.900	-13.800	0.100
271.000	-10.067	0.099
271.100	6.486	0.099
271.200	-4.945	0.099
271.300	-11.458	0.099
271.400	-18.850	0.099
271.500	-7.248	0.099
271.600	-10.993	0.099
271.700	-14.022	0.100
271.800	0.513	0.100
271.900	-34.035	0.099
272.000	-12.100	0.099
272.100	9.615	0.099
272.200	-8.037	0.099
272.300	-13.813	0.099
272.400	-7.223	0.100
272.500	-21.318	0.100
272.600	-0.317	0.100
272.700	0.880	0.099
272.800	-27.358	0.099
272.900	-31.103	0.099
273.000	-9.825	0.100
273.100	-2.823	0.099
273.200	-16.375	0.100
273.300	-19.173	0.099
273.400	-24.068	0.100
273.500	-5.111	0.100
273.600	-6.237	0.099
273.700	-4.364	0.100
273.800	-2.680	0.099
273.900	-17.016	0.099
274.000	0.667	0.099
274.100	6.946	0.100
274.200	-9.308	0.099
274.300	-16.912	0.099
274.400	-15.774	0.100
274.500	-8.526	0.099
274.600	-2.981	0.100
274.700	-7.504	0.099
274.800	-0.035	0.099
274.900	0.146	0.100
275.000	-26.477	0.100
275.100	-19.143	0.100
275.200	3.045	0.099
275.300	-15.600	0.100
275.400	-24.231	0.099
275.500	-12.312	0.099
275.600	-15.120	0.099
275.700	-0.016	0.100
275.800	6.239	0.099
275.900	-9.477	0.099
276.000	-16.264	0.099
276.100	-26.322	0.099
276.200	-5.962	0.099
276.300	-12.955	0.100
276.400	-5.354	0.100
276.500	-9.883	0.100
276.600	-15.628	0.100
276.700	-8.988	0.099
276.800	-3.409	0.100
276.900	4.225	0.100
277.000	-4.469	0.100
277.100	-11.572	0.100
277.200	-17.787	0.100
277.300	-14.287	0.100
277.400	-27.363	0.100
277.500	-3.507	0.099
277.600	-2.897	0.100
277.700	-28.526	0.099
277.800	-14.937	0.099
277.900	-16.875	0.099
278.000	-11.603	0.100
278.100	-10.362	0.099
278.200	-9.564	0.100
278.300	-2.976	0.099
278.400	6.346	0.100
278.500	-9.881	0.100
278.600	-15.427	0.099
278.700	-28.278	0.099
278.800	-0.243	0.100
278.900	-6.299	0.100
279.000	-16.728	0.100
279.100	-3.786	0.099
279.200	-11.527	0.100
279.300	-14.188	0.100
279.400	-0.618	0.100
279.500	-0.639	0.100
279.600	-26.412	0.100
279.700	-1.316	0.100
279.800	-19.412	0.099
279.900	-16.603	0.100
280.000	0.592	0.099
280.100	-6.784	0.100
280.200	-14.131	0.100
280.300	-6.984	0.100
280.400	0.519	0.100
280.500	-7.517	0.099
280.600	-19.057	0.100
280.700	-20.028	0.100
280.800	-8.054	0.099
280.900	-6.182	0.100
281.000	-16.328	0.099
281.100	-6.604	0.100
281.200	4.412	0.100
281.300	-23.881	0.099
281.400	-7.174	0.100
281.500	3.464	0.100
281.600	-19.931	0.099
281.700	-25.057	0.099
281.800	-11.850	0.099
281.900	-2.615	0.099
282.000	-16.117	0.099
282.100	-6.560	0.099
282.200	-16.351	0.099
282.300	-17.477	0.100
282.400	-5.196	0.099
282.500	-9.885	0.099
282.600	-10.272	0.100
282.700	-14.265	0.099
282.800	-15.909	0.099
282.900	-11.197	0.099
283.000	-19.919	0.099
283.100	-10.659	0.099
283.200	-9.677	0.099
283.300	-4.890	0.099
283.400	-0.536	0.099
283.500	-5.902	0.099
283.600	-4.039	0.099
283.700	-10.571	0.099
283.800	-3.787	0.099
283.900	-22.949	0.100
284.000	3.198	0.100
284.100	-13.936	0.100
284.200	-17.083	0.099
284.300	-1.403	0.100
284.400	-5.601	0.100
284.500	-17.351	0.100
284.600	-23.910	0.100
284.700	-3.800	0.099
284.800	-7.444	0.100
284.900	-14.975	0.100
285.000	-26.526	0.100
285.100	-7.520	0.100
285.200	-13.010	0.100
285.300	-21.414	0.099
285.400	-10.143	0.100
285.500	-8.396	0.100
285.600	5.849	0.099
285.700	1.470	0.099
285.800	-2.202	0.100
285.900	-17.490	0.100
286.000	-26.786	0.099
286.100	-17.582	0.100
286.200	-19.124	0.099
286.300	-5.918	0.100
286.400	-10.938	0.099
286.500	2.419	0.100
286.600	-2.280	0.099
286.700	-2.349	0.099
286.800	-21.515	0.099
286.900	-20.251	0.100
287.000	-3.067	0.099
287.100	-14.826	0.099
287.200	-32.036	0.099
287.300	-6.047	0.099
287.400	-4.429	0.099
287.500	-15.996	0.100
287.600	-6.042	0.099
287.700	-7.495	0.100
287.800	-15.269	0.100
287.900	-13.406	0.099
288.000	-15.244	0.100
288.100	-26.806	0.100
288.200	-4.087	0.100
288.300	-19.608	0.100
288.400	-29.182	0.099
288.500	-7.377	0.099
288.600	-4.816	0.100
288.700	-10.392	0.100
288.800	-5.537	0.099
288.900	-13.635	0.100
289.000	-11.086	0.100
289.100	0.535	0.100
289.200	-12.815	0.099
289.300	-14.986	0.100
289.400	-21.966	0.099
289.500	-12.358	0.100
289.600	-11.043	0.100
289.700	-14.965	0.100
289.800	-2.529	0.100
289.900	-6.619	0.100
290.000	-8.675	0.099
290.100	-8.684	0.100
290.200	-21.690	0.100
290.300	-30.446	0.100
290.400	-20.795	0.100
290.500	-10.386	0.100
290.600	-19.657	0.099
290.700	-11.693	0.100
290.800	-10.325	0.100
290.900	-10.466	0.100
291.000	-15.594	0.099
291.100	-22.950	0.100
291.200	-7.141	0.100
291.300	-20.712	0.099
291.400	-10.990	0.099
291.500	-1.868	0.100
291.600	-16.211	0.099
291.700	-28.637	0.099
291.800	0.764	0.099
291.900	-12.520	0.100
292.000	-2.544	0.100
292.100	-2.322	0.099
292.200	-15.092	0.100
292.300	-5.745	0.100
292.400	-15.992	0.099
292.500	-11.604	0.100
292.600	4.803	0.100
292.700	-11.314	0.100
292.800	-23.382	0.099
292.900	6.913	0.099
293.000	3.421	0.100
293.100	-0.890	0.099
293.200	-36.971	0.099
293.300	-10.297	0.099
293.400	-3.226	0.100
293.500	-17.059	0.100
293.600	-20.553	0.100
293.700	-15.375	0.100
293.800	-9.243	0.099
293.900	-3.524	0.099
294.000	-12.770	0.099
294.100	-9.246	0.099
294.200	-6.658	0.100
294.300	-7.100	0.100
294.400	-14.653	0.099
294.500	-8.021	0.100
294.600	-8.988	0.099
294.700	-11.154	0.099
294.800	-18.377	0.100
294.900	-10.159	0.100
295.000	-1.082	0.099
295.100	1.191	0.100
295.200	-4.876	0.099
295.300	-12.238	0.100
295.400	-30.189	0.100
295.500	-2.134	0.099
295.600	-1.519	0.100
295.700	-15.562	0.100
295.800	-8.434	0.100
295.900	-20.354	0.099
296.000	-17.946	0.099
296.100	-20.282	0.099
296.200	-14.035	0.099
296.300	-8.077	0.100
296.400	-9.530	0.099
296.500	-7.862	0.099
296.600	-14.399	0.100
296.700	-1.684	0.100
296.800	-8.862	0.100
296.900	-5.909	0.099
297.000	-14.015	0.100
297.100	-2.528	0.099
297.200	-16.121	0.099
297.300	-21.835	0.100
297.400	7.277	0.100
297.500	-34.930	0.100
297.600	-10.228	0.100
297.700	-0.738	0.099
297.800	-7.523	0.100
297.900	-7.940	0.100
298.000	-17.438	0.099
298.100	-0.535	0.100
298.200	-28.536	0.100
298.300	-28.670	0.099
298.400	-9.712	0.099
298.500	2.373	0.099
298.600	-11.004	0.100
298.700	-24.404	0.100
298.800	-0.829	0.100
298.900	-12.148	0.100
299.000	-18.861	0.100
299.100	-4.870	0.100
299.200	-18.266	0.100
299.300	-1.800	0.100
299.400	-9.575	0.100
299.500	-12.890	0.099
299.600	-17.236	0.100
299.700	-16.100	0.100
299.800	-19.044	0.100
299.900	-21.135	0.100
300.000	-1.087	0.099
300.100	-7.424	0.100
300.200	1.615	0.099
300.300	0.004	0.100
300.400	-4.863	0.100
300.500	-17.212	0.100
300.600	-6.517	0.100
300.700	-5.142	0.100
300.800	-21.479	0.100
300.900	-12.854	0.100
301.000	-7.369	0.100
301.100	-6.505	0.100
301.200	-5.318	0.100
301.300	-9.321	0.100
301.400	-16.260	0.100
301.500	-20.494	0.100
301.600	-16.087	0.100
301.700	-8.103	0.100
301.800	-10.171	0.100
301.900	-13.570	0.100
302.000	-19.348	0.100
302.100	-12.951	0.100
302.200	-5.527	0.100
302.300	-15.290	0.099
302.400	-5.329	0.100
302.500	-4.544	0.100
302.600	-4.758	0.100
302.700	-9.558	0.099
302.800	-22.531	0.099
302.900	1.374	0.100
303.000	-18.023	0.100
303.100	0.310	0.100
303.200	-8.305	0.099
303.300	-2.467	0.100
303.400	-5.410	0.100
303.500	-17.236	0.100
303.600	-11.667	0.099
303.700	-23.029	0.099
303.800	-8.171	0.099
303.900	-11.524	0.099
304.000	-20.195	0.100
304.100	-24.510	0.100
304.200	-11.314	0.100
304.300	3.515	0.100
304.400	2.778	0.100
304.500	-28.062	0.099
304.600	-9.251	0.100
304.700	6.191	0.100
304.800	-20.749	0.100
304.900	-4.697	0.100
305.000	1.688	0.100
305.100	-15.378	0.100
305.200	-12.266	0.100
305.300	-11.898	0.100
305.400	0.041	0.100
305.500	-14.168	0.100
305.600	-8.838	0.100
305.700	-18.235	0.099
305.800	4.612	0.100
305.900	-23.169	0.100
306.000	1.927	0.100
306.100	-17.265	0.100
306.200	-10.538	0.100
306.300	1.196	0.100
306.400	-22.251	0.100
306.500	0.122	0.100
306.600	-12.233	0.100
306.700	-11.291	0.100
306.800	-2.367	0.100
306.900	-16.499	0.100
307.000	-17.516	0.100
307.100	-13.121	0.100
307.200	-7.473	0.100
307.300	-2.517	0.100
307.400	-22.799	0.100
307.500	-7.815	0.100
307.600	-26.463	0.100
307.700	-15.211	0.100
307.800	-6.079	0.100
307.900	1.174	0.100
308.000	-12.113	0.100
308.100	-15.978	0.100
308.200	-21.287	0.100
308.300	6.423	0.100
308.400	-15.796	0.100
308.500	-13.771	0.100
308.600	-6.070	0.100
308.700	-21.945	0.100
308.800	1.959	0.100
308.900	-9.786	0.100
309.000	3.589	0.100
309.100	-20.834	0.100
309.200	-2.612	0.100
309.300	-13.097	0.100
309.400	-6.903	0.100
309.500	-7.445	0.100
309.600	-30.724	0.100
309.700	-5.487	0.100
309.800	3.201	0.100
309.900	-6.360	0.100
310.000	-5.408	0.100
310.100	-9.351	0.100
310.200	-19.446	0.100
310.300	-21.121	0.100
310.400	-12.192	0.100
310.500	-22.429	0.100
310.600	2.900	0.100
310.700	-8.437	0.100
310.800	-10.470	0.100
310.900	-18.206	0.100
311.000	-13.129	0.100
311.100	-17.024	0.099
311.200	-11.829	0.100
311.300	-9.343	0.099
311.400	-28.694	0.099
311.500	-13.142	0.100
311.600	-3.658	0.100
311.700	-5.804	0.100
311.800	-10.277	0.100
311.900	-7.051	0.100
312.000	-16.052	0.100
312.100	-22.303	0.100
312.200	-12.521	0.100
312.300	-9.605	0.100
312.400	-4.117	0.100
312.500	-13.448	0.100
312.600	-18.159	0.100
312.700	-14.773	0.100
312.800	-9.300	0.100
312.900	-12.638	0.100
313.000	-16.197	0.100
313.100	-17.663	0.100
313.200	-1.855	0.100
313.300	-11.947	0.100
313.400	-5.452	0.099
313.500	-17.436	0.099
313.600	-13.377	0.100
313.700	-17.178	0.100
313.800	-7.670	0.100
313.900	-21.506	0.100
314.000	-4.041	0.100
314.100	-8.582	0.100
314.200	-2.494	0.100
314.300	-6.703	0.100
314.400	4.571	0.100
314.500	-7.691	0.100
314.600	-13.138	0.100
314.700	-18.400	0.100
314.800	-7.742	0.100
314.900	-4.237	0.100
315.000	-3.278	0.100
315.100	-9.701	0.100
315.200	-5.031	0.100
315.300	-30.387	0.099
315.400	1.436	0.100
315.500	-17.037	0.100
315.600	3.240	0.100
315.700	-20.243	0.100
315.800	-8.100	0.100
315.900	-5.532	0.100
316.000	-18.500	0.100
316.100	-21.666	0.100
316.200	-10.118	0.100
316.300	-14.795	0.100
316.400	-1.189	0.100
316.500	-2.249	0.100
316.600	-23.344	0.100
316.700	-3.633	0.100
316.800	-1.462	0.100
316.900	-11.804	0.100
317.000	-16.906	0.100
317.100	-14.199	0.100
317.200	-13.984	0.100
317.300	5.892	0.100
317.400	-26.770	0.100
317.500	-3.540	0.100
317.600	-27.088	0.100
317.700	-11.860	0.099
317.800	-29.284	0.100
317.900	0.662	0.100
318.000	-6.116	0.100
318.100	-4.554	0.100
318.200	-3.480	0.100
318.300	-1.983	0.100
318.400	-14.005	0.100
318.500	-14.428	0.100
318.600	3.504	0.100
318.700	-2.535	0.100
318.800	-6.507	0.100
318.900	-8.095	0.099
319.000	-5.012	0.100
319.100	-13.245	0.100
319.200	-41.755	0.099
319.300	-7.068	0.100
319.400	-13.731	0.100
319.500	-10.956	0.100
319.600	-34.943	0.100
319.700	-7.744	0.100
319.800	-23.354	0.100
319.900	-5.413	0.100
320.000	7.569	0.100
320.100	-14.986	0.100
320.200	2.012	0.100
320.300	-4.297	0.100
320.400	-11.080	0.100
320.500	-14.795	0.099
320.600	-11.364	0.100
320.700	-24.564	0.100
320.800	-17.157	0.100
320.900	-7.574	0.100
321.000	-24.481	0.100
321.100	-1.218	0.100
321.200	-6.484	0.100
321.300	-20.203	0.100
321.400	-14.023	0.100
321.500	-9.418	0.100
321.600	-12.541	0.100
321.700	-15.269	0.099
321.800	-19.005	0.100
321.900	-6.722	0.099
322.000	-2.895	0.100
322.100	-10.405	0.099
322.200	-3.232	0.100
322.300	-18.151	0.099
322.400	-7.184	0.100
322.500	-11.668	0.100
322.600	-14.917	0.100
322.700	-13.330	0.100
322.800	-8.592	0.099
322.900	-1.132	0.100
323.000	-19.018	0.100
323.100	-8.424	0.100
323.200	-16.133	0.100
323.300	-14.234	0.100
323.400	-9.248	0.100
323.500	-12.577	0.100
323.600	-9.117	0.099
323.700	-1.940	0.100
323.800	-2.397	0.100
323.900	-3.794	0.100
324.000	-12.111	0.100
324.100	-7.993	0.100
324.200	-28.074	0.099
324.300	-22.576	0.100
324.400	-6.672	0.100
324.500	-26.613	0.100
324.600	9.589	0.100
324.700	-7.049	0.100
324.800	-12.449	0.100
324.900	-10.562	0.100
325.000	-20.174	0.100
325.100	-21.364	0.100
325.200	-7.321	0.099
325.300	-22.566	0.100
325.400	-3.038	0.100
325.500	-15.606	0.100
325.600	-17.078	0.100
325.700	-1.803	0.100
325.800	-4.141	0.100
325.900	-12.021	0.100
326.000	-8.315	0.100
326.100	-15.477	0.100
326.200	-15.209	0.100
326.300	-9.240	0.100
326.400	-6.200	0.100
326.500	-14.260	0.100
326.600	-7.617	0.100
326.700	-1.619	0.100
326.800	-0.136	0.100
326.900	-17.070	0.100
327.000	-6.849	0.100
327.100	-3.202	0.100
327.200	-6.001	0.100
327.300	-17.027	0.100
327.400	-3.710	0.100
327.500	-25.211	0.100
327.600	-19.293	0.100
327.700	-4.311	0.100
327.800	-7.308	0.100
327.900	-20.458	0.100
328.000	-16.950	0.100
328.100	-12.050	0.100
328.200	-11.419	0.100
328.300	-3.864	0.100
328.400	-15.743	0.100
328.500	1.180	0.100
328.600	-27.553	0.100
328.700	5.772	0.100
328.800	-27.651	0.100
328.900	-3.904	0.100
329.000	-4.846	0.100
329.100	-12.907	0.100
329.200	-8.265	0.100
329.300	-11.450	0.100
329.400	-10.198	0.100
329.500	-15.489	0.100
329.600	-11.130	0.100
329.700	-6.718	0.100
329.800	-12.658	0.100
329.900	-0.087	0.100
330.000	-7.152	0.100
330.100	-9.406	0.100
330.200	-6.557	0.100
330.300	-19.708	0.100
330.400	-9.717	0.100
330.500	-17.244	0.100
330.600	-18.283	0.100
330.700	-5.364	0.100
330.800	-10.548	0.100
330.900	-12.801	0.100
331.000	-6.111	0.100
331.100	0.009	0.100
331.200	10.309	0.100
331.300	-1.751	0.100
331.400	3.486	0.100
331.500	-15.230	0.100
331.600	-1.406	0.100
331.700	-5.196	0.100
331.800	-2.381	0.100
331.900	-6.555	0.100
332.000	-6.472	0.099
332.100	-6.359	0.100
332.200	9.294	0.099
332.300	13.090	0.100
332.400	1.224	0.100
332.500	11.667	0.100
332.600	10.604	0.100
332.700	13.859	0.100
332.800	3.873	0.099
332.900	13.258	0.100
333.000	13.337	0.100
333.100	6.936	0.100
333.200	16.408	0.100
333.300	2.805	0.100
333.400	16.014	0.100
333.500	11.120	0.100
333.600	-10.528	0.100
333.700	1.664	0.100
333.800	17.927	0.100
333.900	12.799	0.100
334.000	1.682	0.100
334.100	0.162	0.100
334.200	22.027	0.100
334.300	14.937	0.100
334.400	0.987	0.100
334.500	4.393	0.100
334.600	11.625	0.100
334.700	16.556	0.100
334.800	7.154	0.100
334.900	-2.155	0.100
335.000	-10.555	0.099
335.100	11.692	0.100
335.200	5.531	0.099
335.300	-4.907	0.099
335.400	16.034	0.100
335.500	-5.422	0.100
335.600	-10.768	0.100
335.700	-6.326	0.100
335.800	16.827	0.100
335.900	4.614	0.100
336.000	14.807	0.100
336.100	1.950	0.100
336.200	-0.567	0.100
336.300	7.319	0.099
336.400	5.152	0.100
336.500	3.888	0.100
336.600	7.490	0.100
336.700	5.721	0.099
336.800	8.014	0.100
336.900	1.641	0.099
337.000	13.341	0.100
337.100	16.204	0.100
337.200	11.373	0.100
337.300	-2.943	0.100
337.400	-8.330	0.100
337.500	-1.277	0.100
337.600	7.498	0.100
337.700	13.533	0.100
337.800	-2.254	0.100
337.900	1.092	0.100
338.000	4.557	0.100
338.100	7.374	0.100
338.200	-1.077	0.100
338.300	3.712	0.100
338.400	-1.653	0.100
338.500	16.521	0.100
338.600	3.200	0.100
338.700	-3.264	0.100
338.800	17.671	0.100
338.900	20.348	0.100
339.000	-5.943	0.100
339.100	13.403	0.100
339.200	4.029	0.100
339.300	15.712	0.100
339.400	7.037	0.100
339.500	-12.417	0.100
339.600	7.227	0.100
339.700	3.115	0.100
339.800	19.405	0.100
339.900	1.764	0.100
340.000	-10.797	0.100
340.100	0.606	0.100
340.200	23.210	0.100
340.300	4.022	0.100
340.400	4.921	0.099
340.500	-2.347	0.100
340.600	6.756	0.100
340.700	16.728	0.100
340.800	2.253	0.100
340.900	16.931	0.100
341.000	-2.451	0.100
341.100	5.908	0.100
341.200	5.903	0.100
341.300	11.188	0.100
341.400	15.225	0.100
341.500	2.601	0.100
341.600	13.335	0.100
341.700	2.328	0.100
341.800	16.755	0.100
341.900	13.851	0.100
342.000	18.143	0.100
342.100	11.127	0.100
342.200	11.198	0.100
342.300	24.684	0.100
342.400	5.735	0.100
342.500	26.362	0.100
342.600	27.738	0.100
342.700	21.364	0.100
342.800	9.660	0.100
342.900	4.243	0.100
343.000	3.370	0.100
343.100	34.429	0.100
343.200	15.116	0.100
343.300	10.461	0.100
343.400	-2.826	0.100
343.500	24.069	0.100
343.600	16.973	0.100
343.700	16.688	0.100
343.800	27.421	0.100
343.900	18.374	0.100
344.000	12.629	0.100
344.100	20.080	0.100
344.200	8.394	0.100
344.300	13.883	0.100
344.400	28.030	0.100
344.500	30.833	0.100
344.600	24.505	0.100
344.700	20.031	0.100
344.800	28.335	0.100
344.900	34.643	0.100
345.000	8.287	0.100
345.100	19.004	0.100
345.200	20.465	0.100
345.300	27.579	0.100
345.400	27.627	0.100
345.500	20.889	0.100
345.600	23.356	0.100
345.700	15.668	0.100
345.800	25.021	0.100
345.900	10.511	0.100
346.000	28.288	0.100
346.100	37.363	0.100
346.200	23.121	0.100
346.300	29.039	0.100
346.400	23.353	0.100
346.500	20.696	0.100
346.600	32.693	0.100
346.700	17.130	0.100
346.800	32.844	0.100
346.900	24.257	0.100
347.000	27.021	0.100
347.100	23.474	0.100
347.200	31.258	0.100
347.300	34.094	0.100
347.400	25.402	0.100
347.500	17.577	0.100
347.600	41.463	0.100
347.700	14.904	0.100
347.800	31.556	0.100
347.900	26.879	0.100
348.000	35.945	0.100
348.100	22.290	0.100
348.200	37.789	0.100
348.300	20.307	0.100
348.400	33.056	0.100
348.500	36.018	0.100
348.600	26.159	0.100
348.700	12.587	0.100
348.800	35.000	0.100
348.900	42.746	0.100
349.000	20.965	0.100
349.100	34.526	0.100
349.200	9.655	0.100
349.300	27.268	0.100
349.400	38.808	0.100
349.500	27.134	0.100
349.600	14.637	0.099
349.700	32.129	0.100
349.800	32.603	0.100
349.900	28.440	0.100
350.000	16.293	0.100
350.100	24.406	0.100
350.200	23.564	0.100
350.300	30.810	0.100
350.400	35.733	0.100
350.500	27.187	0.100
350.600	17.337	0.100
350.700	18.725	0.100
350.800	38.950	0.100
350.900	24.399	0.100
351.000	41.681	0.100
351.100	27.612	0.100
351.200	27.671	0.100
351.300	53.648	0.100
351.400	22.477	0.100
351.500	32.373	0.100
351.600	24.270	0.100
351.700	30.801	0.100
351.800	42.421	0.100
351.900	29.928	0.100
352.000	20.849	0.100
352.100	20.120	0.100
352.200	43.312	0.100
352.300	26.848	0.100
352.400	33.260	0.100
352.500	22.325	0.100
352.600	23.785	0.100
352.700	33.812	0.100
352.800	38.835	0.100
352.900	21.425	0.100
353.000	16.686	0.100
353.100	32.281	0.100
353.200	36.336	0.100
353.300	33.014	0.100
353.400	18.848	0.100
353.500	19.546	0.100
353.600	34.659	0.100
353.700	38.981	0.100
353.800	26.929	0.100
353.900	33.788	0.100
354.000	36.719	0.100
354.100	31.271	0.100
354.200	28.653	0.100
354.300	22.256	0.100
354.400	34.772	0.100
354.500	20.356	0.100
354.600	31.796	0.100
354.700	48.064	0.100
354.800	21.544	0.100
354.900	27.501	0.100
355.000	51.981	0.100
355.100	29.773	0.100
355.200	27.886	0.100
355.300	26.749	0.100
355.400	30.082	0.100
355.500	31.643	0.100
355.600	39.609	0.100
355.700	17.559	0.100
355.800	23.431	0.100
355.900	27.830	0.100
356.000	38.982	0.100
356.100	24.221	0.100
356.200	44.691	0.100
356.300	15.124	0.100
356.400	23.000	0.100
356.500	36.390	0.100
356.600	13.209	0.100
356.700	32.875	0.100
356.800	27.656	0.099
356.900	31.563	0.100
357.000	30.021	0.099
357.100	46.896	0.100
357.200	35.007	0.100
357.300	16.698	0.100
357.400	22.408	0.100
357.500	39.490	0.100
357.600	31.486	0.100
357.700	36.972	0.100
357.800	26.093	0.100
357.900	29.872	0.100
358.000	31.726	0.100
358.100	29.173	0.100
358.200	43.251	0.100
358.300	34.994	0.100
358.400	41.947	0.100
358.500	36.881	0.100
358.600	19.460	0.100
358.700	21.209	0.100
358.800	45.274	0.100
358.900	41.480	0.100
359.000	35.434	0.100
359.100	20.505	0.100
359.200	25.940	0.100
359.300	23.811	0.100
359.400	23.354	0.100
359.500	38.508	0.100
359.600	41.709	0.100
359.700	40.291	0.100
359.800	25.987	0.100
359.900	32.663	0.100
360.000	20.526	0.100
360.100	24.833	0.100
360.200	33.384	0.100
360.300	26.660	0.100
360.400	24.794	0.100
360.500	36.745	0.100
360.600	36.133	0.100
360.700	28.912	0.100
360.800	30.776	0.100
360.900	18.609	0.100
361.000	13.745	0.100
361.100	18.774	0.100
361.200	45.477	0.100
361.300	26.414	0.100
361.400	32.187	0.100
361.500	23.987	0.100
361.600	33.880	0.100
361.700	45.243	0.100
361.800	19.786	0.100
361.900	38.625	0.100
362.000	7.138	0.100
362.100	36.501	0.099
362.200	33.553	0.100
362.300	54.579	0.100
362.400	17.136	0.100
362.500	42.361	0.099
362.600	31.590	0.100
362.700	49.454	0.100
362.800	26.329	0.100
362.900	27.015	0.100
363.000	8.034	0.100
363.100	25.331	0.100
363.200	29.874	0.100
363.300	45.078	0.100
363.400	29.219	0.100
363.500	39.092	0.100
363.600	36.200	0.100
363.700	13.990	0.100
363.800	25.763	0.100
363.900	60.383	0.100
364.000	34.018	0.100
364.100	27.436	0.100
364.200	33.104	0.100
364.300	23.165	0.100
364.400	39.878	0.100
364.500	34.322	0.100
364.600	31.240	0.100
364.700	20.750	0.100
364.800	17.438	0.100
364.900	37.360	0.100
365.000	38.639	0.100
365.100	30.104	0.100
365.200	47.273	0.100
365.300	25.189	0.100
365.400	22.457	0.100
365.500	13.676	0.100
365.600	36.012	0.100
365.700	39.403	0.100
365.800	19.157	0.100
365.900	34.621	0.100
366.000	26.014	0.100
366.100	25.958	0.100
366.200	32.380	0.100
366.300	31.645	0.100
366.400	32.029	0.100
366.500	34.542	0.100
366.600	28.656	0.100
366.700	18.905	0.100
366.800	33.305	0.100
366.900	34.101	0.100
367.000	30.502	0.100
367.100	29.580	0.100
367.200	27.158	0.100
367.300	33.618	0.100
367.400	41.933	0.100
367.500	22.556	0.100
367.600	18.976	0.100
367.700	36.251	0.100
367.800	34.048	0.100
367.900	30.175	0.100
368.000	14.134	0.100
368.100	20.791	0.100
368.200	26.047	0.100
368.300	34.879	0.100
368.400	16.784	0.100
368.500	30.061	0.100
368.600	26.307	0.100
368.700	21.766	0.100
368.800	24.302	0.100
368.900	35.556	0.100
369.000	29.304	0.100
369.100	20.290	0.100
369.200	25.716	0.100
369.300	40.393	0.100
369.400	51.419	0.100
369.500	21.209	0.100
369.600	35.279	0.100
369.700	28.220	0.100
369.800	26.393	0.100
369.900	34.598	0.100
370.000	23.569	0.099
370.100	20.624	0.100
370.200	29.715	0.100
370.300	16.732	0.100
370.400	36.904	0.100
370.500	38.891	0.100
370.600	19.789	0.100
370.700	35.971	0.100
370.800	34.839	0.100
370.900	18.351	0.100
371.000	58.366	0.100
371.100	33.415	0.100
371.200	37.929	0.100
371.300	20.481	0.100
371.400	18.449	0.100
371.500	39.753	0.100
371.600	34.503	0.100
371.700	10.240	0.100
371.800	30.954	0.100
371.900	30.537	0.100
372.000	37.775	0.100
372.100	30.330	0.100
372.200	36.893	0.100
372.300	25.390	0.100
372.400	25.638	0.100
372.500	21.664	0.100
372.600	37.684	0.100
372.700	30.255	0.100
372.800	29.066	0.100
372.900	42.875	0.100
373.000	24.567	0.100
373.100	29.552	0.100
373.200	43.016	0.100
373.300	20.311	0.100
373.400	34.326	0.100
373.500	37.436	0.100
373.600	51.846	0.100
373.700	18.929	0.100
373.800	29.926	0.100
373.900	23.150	0.100
374.000	26.638	0.099
374.100	25.810	0.100
374.200	26.321	0.100
374.300	22.941	0.100
374.400	48.310	0.100
374.500	22.790	0.100
374.600	40.678	0.100
374.700	25.454	0.100
374.800	29.233	0.100
374.900	24.792	0.100
375.000	23.380	0.100
375.100	17.976	0.100
375.200	33.500	0.100
375.300	22.847	0.100
375.400	28.862	0.100
375.500	26.499	0.100
375.600	28.679	0.100
375.700	34.743	0.100
375.800	7.936	0.100
375.900	20.745	0.100
376.000	27.476	0.100
376.100	41.037	0.100
376.200	23.596	0.100
376.300	38.042	0.100
376.400	23.224	0.099
376.500	28.177	0.100
376.600	38.526	0.100
376.700	43.412	0.100
376.800	24.115	0.100
376.900	37.455	0.100
377.000	19.525	0.099
377.100	35.168	0.099
377.200	18.203	0.099
377.300	30.960	0.100
377.400	33.803	0.099
377.500	30.545	0.100
377.600	21.366	0.100
377.700	34.805	0.100
377.800	22.170	0.100
377.900	32.144	0.100
378.000	26.932	0.100
378.100	32.691	0.100
378.200	26.307	0.100
378.300	25.624	0.100
378.400	40.602	0.099
378.500	30.882	0.100
378.600	20.347	0.100
378.700	40.318	0.100
378.800	28.184	0.100
378.900	3.854	0.100
379.000	38.064	0.100
379.100	39.041	0.100
379.200	23.948	0.100
379.300	12.072	0.100
379.400	24.440	0.100
379.500	38.001	0.100
379.600	30.285	0.100
379.700	23.104	0.100
379.800	30.674	0.100
379.900	17.639	0.100
380.000	46.317	0.100
380.100	25.884	0.100
380.200	18.761	0.100
380.300	21.979	0.099
380.400	29.818	0.100
380.500	25.554	0.100
380.600	33.428	0.100
380.700	40.698	0.100
380.800	28.459	0.100
380.900	22.780	0.100
381.000	24.681	0.100
381.100	40.294	0.100
381.200	40.142	0.100
381.300	25.442	0.100
381.400	12.502	0.100
381.500	34.793	0.099
381.600	31.040	0.100
381.700	22.866	0.100
381.800	43.687	0.100
381.900	30.121	0.100
382.000	14.273	0.100
382.100	35.393	0.100
382.200	30.472	0.099
382.300	28.674	0.099
382.400	5.886	0.100
382.500	57.118	0.100
382.600	17.525	0.100
382.700	45.415	0.100
382.800	27.950	0.100
382.900	14.207	0.100
383.000	26.834	0.100
383.100	42.156	0.100
383.200	45.156	0.100
383.300	11.395	0.100
383.400	36.122	0.099
383.500	31.553	0.100
383.600	10.389	0.100
383.700	40.817	0.100
383.800	34.893	0.100
383.900	39.164	0.100
384.000	28.344	0.100
384.100	23.303	0.100
384.200	17.907	0.100
384.300	38.517	0.100
384.400	24.062	0.100
384.500	37.644	0.100
384.600	30.374	0.100
384.700	34.376	0.100
384.800	12.522	0.100
384.900	32.600	0.100
385.000	13.227	0.100
385.100	29.489	0.100
385.200	28.162	0.100
385.300	33.121	0.100
385.400	28.306	0.100
385.500	26.908	0.100
385.600	20.873	0.099
385.700	34.808	0.100
385.800	17.750	0.100
385.900	31.406	0.100
386.000	35.448	0.100
386.100	13.204	0.100
386.200	38.519	0.100
386.300	44.233	0.100
386.400	35.881	0.100
386.500	43.774	0.100
386.600	25.627	0.100
386.700	26.782	0.100
386.800	26.301	0.100
386.900	12.826	0.100
387.000	30.495	0.100
387.100	38.466	0.100
387.200	33.595	0.100
387.300	18.293	0.100
387.400	38.193	0.100
387.500	14.116	0.100
387.600	21.468	0.100
387.700	32.643	0.100
387.800	24.784	0.100
387.900	27.321	0.100
388.000	18.535	0.100
388.100	32.017	0.100
388.200	42.785	0.100
388.300	30.342	0.100
388.400	36.472	0.100
388.500	27.723	0.100
388.600	21.610	0.100
388.700	43.213	0.100
388.800	33.764	0.100
388.900	35.612	0.100
389.000	35.894	0.100
389.100	14.388	0.100
389.200	28.282	0.100
389.300	27.555	0.099
389.400	29.743	0.100
389.500	25.416	0.100
389.600	38.706	0.100
389.700	36.775	0.100
389.800	30.531	0.100
389.900	40.339	0.100
390.000	27.281	0.100
390.100	25.099	0.099
390.200	30.778	0.100
390.300	16.372	0.100
390.400	28.932	0.099
390.500	20.311	0.100
390.600	25.855	0.100
390.700	30.429	0.100
390.800	22.480	0.100
390.900	36.558	0.100
391.000	17.171	0.099
391.100	17.573	0.100
391.200	19.610	0.100
391.300	24.075	0.100
391.400	14.452	0.100
391.500	22.977	0.100
391.600	9.424	0.100
391.700	10.468	0.100
391.800	18.728	0.100
391.900	13.325	0.100
392.000	19.054	0.100
392.100	16.330	0.100
392.200	17.742	0.099
392.300	6.462	0.100
392.400	22.325	0.100
392.500	12.306	0.100
392.600	8.259	0.100
392.700	6.699	0.100
392.800	-0.593	0.100
392.900	7.649	0.100
393.000	9.341	0.100
393.100	11.770	0.100
393.200	20.515	0.100
393.300	18.304	0.100
393.400	0.507	0.100
393.500	3.673	0.100
393.600	-3.972	0.100
393.700	12.226	0.099
393.800	-8.200	0.100
393.900	-14.266	0.100
394.000	-2.491	0.100
394.100	17.354	0.100
394.200	2.048	0.100
394.300	12.823	0.100
394.400	-4.640	0.100
394.500	2.950	0.100
394.600	-17.330	0.100
394.700	-13.143	0.100
394.800	-0.684	0.100
394.900	1.007	0.100
395.000	-0.301	0.100
395.100	10.827	0.100
395.200	9.446	0.100
395.300	-0.758	0.100
395.400	-5.473	0.100
395.500	-8.355	0.100
395.600	-4.295	0.100
395.700	10.553	0.100
395.800	-3.130	0.100
395.900	-12.407	0.100
396.000	2.653	0.100
396.100	-8.819	0.100
396.200	-7.132	0.100
396.300	-0.286	0.100
396.400	0.170	0.100
396.500	-4.249	0.100
396.600	-4.405	0.100
396.700	-0.091	0.100
396.800	0.878	0.100
396.900	-1.063	0.100
397.000	-10.339	0.100
397.100	16.815	0.100
397.200	-19.004	0.100
397.300	-14.021	0.100
397.400	-0.216	0.100
397.500	-1.284	0.100
397.600	-19.718	0.100
397.700	-2.191	0.100
397.800	-11.310	0.100
397.900	14.854	0.100
398.000	-6.906	0.100
398.100	6.680	0.100
398.200	3.500	0.100
398.300	-12.473	0.100
398.400	3.001	0.100
398.500	-3.452	0.100
398.600	4.362	0.100
398.700	-3.532	0.100
398.800	-6.220	0.100
398.900	-5.157	0.100
399.000	0.383	0.100
399.100	-5.690	0.100
399.200	-9.510	0.100
399.300	-17.080	0.100
399.400	19.190	0.100
399.500	0.981	0.100
399.600	1.229	0.100
399.700	-9.707	0.100
399.800	-12.101	0.100
399.900	-12.775	0.100
400.000	3.105	0.100
400.100	-10.025	0.100
400.200	-10.895	0.100
400.300	-4.169	0.100
400.400	13.005	0.100
400.500	-11.029	0.100
400.600	-4.197	0.100
400.700	-2.198	0.100
400.800	-5.302	0.100
400.900	-7.468	0.100
401.000	2.798	0.100
401.100	-5.699	0.100
401.200	-7.625	0.100
401.300	-5.794	0.100
401.400	15.394	0.100
401.500	-4.169	0.100
401.600	-7.296	0.100
401.700	-9.699	0.100
401.800	-2.616	0.100
401.900	3.689	0.100
402.000	10.793	0.100
402.100	-7.419	0.100
402.200	-6.415	0.100
402.300	-4.974	0.100
402.400	0.095	0.100
402.500	1.042	0.100
402.600	1.772	0.100
402.700	-4.341	0.100
402.800	-5.275	0.100
402.900	-3.880	0.100
403.000	15.999	0.100
403.100	-0.492	0.100
403.200	9.602	0.100
403.300	-8.614	0.100
403.400	-12.578	0.100
403.500	-15.837	0.100
403.600	-8.458	0.100
403.700	-2.514	0.100
403.800	-14.602	0.100
403.900	10.129	0.100
404.000	2.502	0.100
404.100	-13.802	0.100
404.200	-5.688	0.100
404.300	2.555	0.100
404.400	-5.971	0.100
404.500	0.845	0.100
404.600	-10.809	0.100
404.700	3.432	0.100
404.800	7.516	0.100
404.900	-4.110	0.100
405.000	9.065	0.100
405.100	3.064	0.100
405.200	-1.648	0.100
405.300	-6.995	0.100
405.400	3.483	0.100
405.500	-12.348	0.100
405.600	-9.675	0.100
405.700	1.260	0.100
405.800	-15.996	0.100
405.900	-8.419	0.100
406.000	1.741	0.100
406.100	-12.757	0.100
406.200	-5.963	0.100
406.300	-5.008	0.100
406.400	-9.654	0.100
406.500	-8.452	0.100
406.600	-11.959	0.100
406.700	-19.373	0.100
406.800	-8.654	0.100
406.900	-0.002	0.100
407.000	1.559	0.100
407.100	-7.849	0.100
407.200	12.137	0.100
407.300	-20.686	0.100
407.400	2.163	0.100
407.500	-7.663	0.100
407.600	-7.038	0.100
407.700	-15.462	0.100
407.800	9.685	0.100
407.900	-21.790	0.100
408.000	-6.513	0.100
408.100	-13.012	0.100
408.200	-9.538	0.100
408.300	-3.783	0.100
408.400	-1.016	0.100
408.500	2.145	0.100
408.600	7.269	0.100
408.700	3.987	0.100
408.800	-5.739	0.100
408.900	-0.359	0.100
409.000	-13.889	0.100
409.100	2.718	0.100
409.200	-5.128	0.100
409.300	-2.915	0.100
409.400	-16.122	0.100
409.500	-5.592	0.100
409.600	-9.555	0.100
409.700	2.234	0.100
409.800	12.368	0.100
409.900	-8.148	0.100
410.000	-10.883	0.100
410.100	-8.690	0.100
410.200	0.065	0.100
410.300	-22.799	0.100
410.400	-23.288	0.100
410.500	-0.592	0.100
410.600	-19.630	0.100
410.700	6.676	0.100
410.800	-9.468	0.100
410.900	-18.098	0.100
411.000	-6.042	0.100
411.100	-2.251	0.100
411.200	-12.145	0.100
411.300	-19.705	0.100
411.400	-4.236	0.100
411.500	-9.080	0.100
411.600	4.315	0.100
411.700	-1.924	0.100
411.800	-3.734	0.100
411.900	-10.935	0.100
412.000	-6.317	0.100
412.100	-10.845	0.100
412.200	-13.105	0.100
412.300	-10.010	0.100
412.400	3.159	0.100
412.500	-11.648	0.100
412.600	1.098	0.100
412.700	1.953	0.100
412.800	-2.802	0.100
412.900	-25.130	0.100
413.000	-7.059	0.100
413.100	0.080	0.100
413.200	-17.134	0.100
413.300	-6.719	0.100
413.400	-9.080	0.100
413.500	-0.999	0.100
413.600	-21.905	0.100
413.700	-19.334	0.100
413.800	15.987	0.100
413.900	-20.523	0.100
414.000	-17.720	0.100
414.100	-4.127	0.100
414.200	-8.690	0.100
414.300	-1.418	0.100
414.400	0.192	0.100
414.500	-17.709	0.100
414.600	-11.235	0.100
414.700	-20.684	0.100
414.800	-2.259	0.100
414.900	-26.758	0.100
415.000	-1.974	0.100
415.100	-21.514	0.100
415.200	-9.266	0.100
415.300	0.393	0.100
415.400	-6.545	0.100
415.500	-12.165	0.100
415.600	-18.014	0.100
415.700	-4.885	0.100
415.800	-10.355	0.100
415.900	-23.368	0.100
416.000	-12.335	0.100
416.100	-8.423	0.100
416.200	7.907	0.100
416.300	-20.120	0.100
416.400	-20.628	0.100
416.500	-15.214	0.100
416.600	-1.867	0.100
416.700	-12.794	0.100
416.800	-7.366	0.100
416.900	-10.448	0.100
417.000	-11.009	0.100
417.100	-17.439	0.100
417.200	-9.393	0.100
417.300	0.713	0.100
417.400	-5.586	0.100
417.500	-24.629	0.100
417.600	-12.507	0.100
417.700	-4.865	0.100
417.800	-6.164	0.100
417.900	-18.222	0.100
418.000	-24.350	0.100
418.100	-16.581	0.100
418.200	-2.183	0.100
418.300	-2.692	0.100
418.400	-4.401	0.100
418.500	-20.285	0.100
418.600	-13.365	0.100
418.700	-12.071	0.100
418.800	-2.901	0.100
418.900	-16.251	0.100
419.000	-12.457	0.100
419.100	-6.441	0.100
419.200	-18.163	0.100
419.300	-6.892	0.100
419.400	-13.787	0.100
419.500	-23.284	0.100
419.600	-4.717	0.100
419.700	-10.363	0.100
419.800	-17.291	0.100
419.900	-16.170	0.100
420.000	-1.193	0.100
420.100	1.005	0.100
420.200	-15.247	0.100
420.300	-3.202	0.100
420.400	-10.501	0.100
420.500	-16.193	0.100
420.600	-20.677	0.100
420.700	-13.211	0.100
420.800	-2.497	0.100
420.900	-15.463	0.100
421.000	3.209	0.100
421.100	-18.261	0.100
421.200	-22.534	0.100
421.300	1.978	0.100
421.400	-16.720	0.100
421.500	-17.770	0.100
421.600	-5.688	0.100
421.700	-12.082	0.100
421.800	-23.435	0.100
421.900	-13.778	0.100
422.000	-11.640	0.100
422.100	-12.936	0.100
422.200	-17.536	0.100
422.300	-9.793	0.100
422.400	-16.729	0.100
422.500	3.195	0.100
422.600	-19.068	0.100
422.700	-22.330	0.100
422.800	0.108	0.100
422.900	-14.945	0.100
423.000	-17.570	0.100
423.100	-17.881	0.100
423.200	-5.095	0.100
423.300	-13.434	0.100
423.400	-0.062	0.100
423.500	-29.315	0.100
423.600	-4.381	0.100
423.700	-7.935	0.100
423.800	-5.305	0.100
423.900	-12.209	0.100
424.000	-6.690	0.100
424.100	-23.633	0.100
424.200	-4.466	0.100
424.300	-12.934	0.100
424.400	-18.509	0.100
424.500	-19.776	0.100
424.600	-16.718	0.100
424.700	-21.134	0.100
424.800	-13.434	0.100
424.900	-3.137	0.100
425.000	-18.742	0.100
425.100	-4.920	0.100
425.200	-23.996	0.100
425.300	-19.325	0.100
425.400	-1.235	0.100
425.500	12.922	0.100
425.600	-21.069	0.100
425.700	-4.613	0.100
425.800	-2.798	0.100
425.900	-1.349	0.100
426.000	-13.395	0.100
426.100	-11.859	0.100
426.200	-20.171	0.100
426.300	-4.445	0.100
426.400	2.328	0.100
426.500	-12.767	0.100
426.600	-14.600	0.100
426.700	-9.449	0.100
426.800	-12.440	0.100
426.900	-27.387	0.100
427.000	-3.359	0.100
427.100	-10.449	0.100
427.200	-17.804	0.100
427.300	-3.709	0.100
427.400	-18.878	0.100
427.500	-17.926	0.100
427.600	-12.480	0.100
427.700	-9.092	0.100
427.800	-17.696	0.100
427.900	-19.412	0.100
428.000	-7.103	0.100
428.100	-12.954	0.100
428.200	-19.015	0.100
428.300	-21.930	0.100
428.400	-17.136	0.100
428.500	-24.467	0.100
428.600	-8.386	0.100
428.700	-6.782	0.100
428.800	-11.523	0.100
428.900	-19.896	0.100
429.000	-8.746	0.100
429.100	-19.875	0.100
429.200	-7.594	0.100
429.300	-7.510	0.100
429.400	-2.544	0.100
429.500	10.659	0.100
429.600	-15.196	0.100
429.700	-13.169	0.100
429.800	-10.125	0.100
429.900	-5.792	0.100
430.000	-17.045	0.100
430.100	-11.536	0.099
430.200	-11.146	0.100
430.300	-16.221	0.100
430.400	-15.993	0.100
430.500	-34.725	0.100
430.600	-7.814	0.100
430.700	-13.165	0.100
430.800	-9.234	0.100
430.900	-13.098	0.100
431.000	-19.212	0.100
431.100	-21.463	0.100
431.200	-1.009	0.100
431.300	-15.619	0.100
431.400	-12.230	0.100
431.500	-15.018	0.100
431.600	-9.916	0.100
431.700	-1.141	0.100
431.800	-10.328	0.100
431.900	-21.596	0.100
432.000	-10.783	0.100
432.100	-3.037	0.099
432.200	-18.733	0.100
432.300	-13.173	0.100
432.400	-18.713	0.100
432.500	-20.862	0.100
432.600	-19.996	0.100
432.700	-27.048	0.100
432.800	-2.029	0.100
432.900	-0.549	0.100
433.000	-16.225	0.100
433.100	-5.539	0.100
433.200	-18.500	0.100
433.300	-19.601	0.100
433.400	-19.883	0.100
433.500	-12.885	0.100
433.600	-12.357	0.100
433.700	0.649	0.100
433.800	-14.393	0.100
433.900	-24.914	0.100
434.000	-30.193	0.100
434.100	-9.559	0.100
434.200	-16.822	0.100
434.300	-11.851	0.100
434.400	-6.391	0.100
434.500	-15.374	0.100
434.600	-17.340	0.100
434.700	-16.303	0.100
434.800	-25.688	0.100
434.900	-10.012	0.099
435.000	-21.166	0.100
435.100	2.973	0.100
435.200	-6.550	0.100
435.300	-10.400	0.100
435.400	-9.725	0.100
435.500	-27.279	0.100
435.600	-1.668	0.100
435.700	-13.807	0.100
435.800	-13.882	0.100
435.900	-13.221	0.100
436.000	-17.139	0.100
436.100	14.445	0.100
436.200	-7.744	0.100
436.300	-15.717	0.100
436.400	-16.717	0.100
436.500	-0.401	0.100
436.600	-17.989	0.100
436.700	-12.904	0.100
436.800	-10.199	0.100
436.900	-7.555	0.100
437.000	-17.593	0.100
437.100	-5.734	0.100
437.200	-3.177	0.100
437.300	-20.312	0.100
437.400	-3.586	0.100
437.500	-29.943	0.100
437.600	-4.291	0.100
437.700	-2.238	0.100
437.800	-10.417	0.100
437.900	-21.459	0.100
438.000	-16.108	0.100
438.100	-23.207	0.100
438.200	-12.788	0.100
438.300	-10.981	0.100
438.400	-6.577	0.100
438.500	-10.063	0.100
438.600	-12.854	0.100
438.700	-4.015	0.100
438.800	-7.509	0.100
438.900	-3.882	0.100
439.000	-25.425	0.100
439.100	-16.551	0.100
439.200	4.481	0.100
439.300	-5.683	0.100
439.400	-17.267	0.100
439.500	-0.858	0.100
439.600	-11.729	0.100
439.700	-12.130	0.100
439.800	-14.955	0.100
439.900	-16.097	0.100
440.000	4.096	0.100
440.100	-25.561	0.100
440.200	-15.741	0.100
440.300	-8.853	0.100
440.400	-19.689	0.100
440.500	-22.649	0.100
440.600	-19.722	0.100
440.700	-9.530	0.100
440.800	-13.170	0.100
440.900	-10.016	0.100
441.000	-7.416	0.100
441.100	-8.907	0.100
441.200	-8.752	0.100
441.300	-9.839	0.100
441.400	-5.800	0.100
441.500	-13.064	0.100
441.600	-19.396	0.100
441.700	-15.450	0.100
441.800	-2.628	0.100
441.900	-22.960	0.100
442.000	-3.151	0.100
442.100	-14.396	0.100
442.200	-15.373	0.100
442.300	-13.866	0.100
442.400	-16.021	0.100
442.500	-16.194	0.100
442.600	-14.346	0.100
442.700	-4.901	0.100
442.800	-14.823	0.100
442.900	-18.281	0.100
443.000	-12.967	0.100
443.100	-30.694	0.100
443.200	6.781	0.100
443.300	-11.830	0.100
443.400	1.037	0.100
443.500	-5.502	0.100
443.600	3.328	0.100
443.700	-13.963	0.100
443.800	-18.274	0.100
443.900	-11.703	0.100
444.000	-19.242	0.100
444.100	-27.746	0.100
444.200	-17.206	0.100
444.300	6.229	0.100
444.400	-15.958	0.100
444.500	-28.912	0.100
444.600	1.403	0.100
444.700	-9.048	0.100
444.800	-2.456	0.100
444.900	-29.375	0.100
445.000	-14.352	0.100
445.100	-22.981	0.100
445.200	-15.568	0.100
445.300	-10.842	0.100
445.400	-16.436	0.100
445.500	4.747	0.100
445.600	-8.759	0.100
445.700	-15.535	0.100
445.800	-12.026	0.100
445.900	-20.204	0.100
446.000	-3.568	0.100
446.100	-5.196	0.100
446.200	-40.187	0.100
446.300	-23.092	0.100
446.400	-20.237	0.100
446.500	-7.821	0.100
446.600	-12.970	0.100
446.700	-13.149	0.100
446.800	-17.567	0.100
446.900	-11.540	0.100
447.000	-22.186	0.100
447.100	-28.957	0.100
447.200	-10.154	0.100
447.300	-17.993	0.100
447.400	-10.795	0.100
447.500	-18.651	0.100
447.600	2.052	0.100
447.700	-20.275	0.100
447.800	-7.073	0.100
447.900	-15.087	0.100
448.000	-15.187	0.099
448.100	-13.031	0.100
448.200	-8.823	0.100
448.300	-21.202	0.099
448.400	-8.939	0.100
448.500	-13.306	0.100
448.600	-22.269	0.100
448.700	-17.047	0.099
448.800	-13.721	0.100
448.900	-14.468	0.099
449.000	-9.249	0.100
449.100	-9.680	0.100
449.200	-16.474	0.100
449.300	-12.051	0.100
449.400	-21.353	0.099
449.500	-2.148	0.100
449.600	-14.653	0.100
449.700	-6.340	0.100
449.800	-27.748	0.100
449.900	-11.666	0.100
450.000	-20.592	0.100
450.100	-8.936	0.100
450.200	-17.283	0.100
450.300	-10.357	0.100
450.400	6.208	0.100
450.500	-9.992	0.100
450.600	-9.885	0.100
450.700	-24.862	0.100
450.800	-31.171	0.100
450.900	-3.809	0.100
451.000	-23.630	0.100
451.100	-3.449	0.100
451.200	-14.386	0.100
451.300	-2.652	0.100
451.400	4.078	0.100
451.500	-10.452	0.100
451.600	4.816	0.100
451.700	-28.565	0.100
451.800	7.185	0.100
451.900	-14.484	0.100
452.000	-13.125	0.100
452.100	-27.345	0.100
452.200	-22.385	0.100
452.300	-1.153	0.100
452.400	-11.131	0.100
452.500	-13.649	0.100
452.600	-7.323	0.100
452.700	-6.972	0.100
452.800	-5.190	0.100
452.900	-16.078	0.100
453.000	-25.080	0.100
453.100	-9.562	0.100
453.200	-12.101	0.100
453.300	-22.805	0.100
453.400	-20.532	0.100
453.500	-3.591	0.100
453.600	-18.403	0.100
453.700	-22.358	0.100
453.800	1.343	0.100
453.900	-21.388	0.100
454.000	-4.584	0.100
454.100	-12.781	0.100
454.200	-9.932	0.100
454.300	-13.836	0.100
454.400	-14.282	0.100
454.500	-17.824	0.100
454.600	-16.750	0.100
454.700	-8.995	0.100
454.800	-4.675	0.100
454.900	-1.801	0.100
455.000	-22.745	0.100
455.100	-20.163	0.100
455.200	-4.653	0.100
455.300	-10.089	0.100
455.400	-21.522	0.100
455.500	-6.423	0.100
455.600	-13.467	0.100
455.700	-20.081	0.100
455.800	-19.657	0.100
455.900	-3.672	0.100
456.000	-12.407	0.100
456.100	-14.609	0.100
456.200	-23.046	0.100
456.300	-7.773	0.100
456.400	-28.338	0.100
456.500	-9.304	0.100
456.600	-13.156	0.100
456.700	4.834	0.100
456.800	-25.211	0.100
456.900	-9.221	0.100
457.000	-19.505	0.100
457.100	-6.462	0.100
457.200	-31.474	0.100
457.300	-16.994	0.100
457.400	5.913	0.100
457.500	-15.216	0.100
457.600	-9.134	0.100
457.700	1.739	0.100
457.800	-18.941	0.100
457.900	-16.665	0.100
458.000	-20.895	0.100
458.100	-19.879	0.100
458.200	-22.507	0.100
458.300	-6.763	0.100
458.400	-10.121	0.100
458.500	-11.914	0.100
458.600	-10.447	0.100
458.700	-12.180	0.100
458.800	-7.272	0.100
458.900	-29.855	0.100
459.000	-6.234	0.100
459.100	-3.067	0.100
459.200	-21.379	0.100
459.300	-17.523	0.100
459.400	-14.278	0.100
459.500	-23.667	0.100
459.600	-13.682	0.100
459.700	-0.870	0.100
459.800	-13.993	0.100
459.900	-8.801	0.100
460.000	-20.210	0.100
460.100	-12.361	0.100
460.200	1.147	0.100
460.300	-14.899	0.100
460.400	-8.784	0.100
460.500	-9.766	0.100
460.600	-32.418	0.100
460.700	-11.546	0.100
460.800	-24.096	0.100
460.900	-7.771	0.100
461.000	-10.704	0.100
461.100	-15.132	0.099
461.200	-16.862	0.100
461.300	-17.223	0.100
461.400	-13.869	0.100
461.500	-0.875	0.100
461.600	-5.353	0.100
461.700	-22.217	0.100
461.800	-21.763	0.100
461.900	-15.664	0.100
462.000	-12.245	0.099
462.100	-12.319	0.100
462.200	-13.145	0.100
462.300	-1.816	0.100
462.400	-10.512	0.100
462.500	-17.196	0.100
462.600	-14.475	0.100
462.700	-8.947	0.100
462.800	-22.973	0.100
462.900	-2.161	0.100
463.000	-5.933	0.100
463.100	-3.189	0.100
463.200	-27.169	0.100
463.300	-17.782	0.100
463.400	-13.029	0.100
463.500	-0.342	0.100
463.600	-0.466	0.100
463.700	-3.513	0.100
463.800	-25.586	0.100
463.900	-19.431	0.100
464.000	-25.802	0.100
464.100	-11.759	0.100
464.200	-7.872	0.100
464.300	-14.050	0.100
464.400	-29.482	0.100
464.500	-4.312	0.100
464.600	-10.796	0.100
464.700	-9.069	0.100
464.800	-12.567	0.100
464.900	-23.462	0.099
465.000	-4.513	0.100
465.100	-10.315	0.100
465.200	-7.782	0.100
465.300	-13.812	0.100
465.400	-15.790	0.100
465.500	-25.874	0.100
465.600	-5.829	0.100
465.700	-14.729	0.099
465.800	-17.890	0.100
465.900	-0.697	0.100
466.000	-12.997	0.100
466.100	-13.479	0.100
466.200	-7.469	0.100
466.300	-21.494	0.100
466.400	-10.784	0.100
466.500	0.417	0.100
466.600	1.113	0.100
466.700	-18.669	0.100
466.800	-7.822	0.100
466.900	-21.306	0.100
467.000	-28.187	0.100
467.100	-15.111	0.100
467.200	-11.236	0.100
467.300	-12.422	0.100
467.400	-24.107	0.099
467.500	-1.921	0.100
467.600	-11.290	0.100
467.700	-4.313	0.100
467.800	1.159	0.100
467.900	-24.460	0.100
468.000	-15.290	0.100
468.100	-21.381	0.100
468.200	-6.282	0.100
468.300	-4.122	0.100
468.400	-14.888	0.100
468.500	-23.367	0.100
468.600	-1.043	0.100
468.700	-8.088	0.100
468.800	-18.679	0.100
468.900	-8.577	0.100
469.000	-1.842	0.100
469.100	-12.268	0.100
469.200	-7.017	0.100
469.300	-17.257	0.100
469.400	-3.123	0.100
469.500	-2.369	0.100
469.600	-9.751	0.100
469.700	4.175	0.100
469.800	-25.431	0.100
469.900	-14.573	0.100
470.000	-9.239	0.100
470.100	-17.007	0.100
470.200	-17.663	0.100
470.300	-20.565	0.100
470.400	-6.349	0.100
470.500	-12.521	0.100
470.600	-16.866	0.100
470.700	-14.763	0.100
470.800	-27.376	0.100
470.900	-5.984	0.100
471.000	-14.352	0.100
471.100	-2.120	0.100
471.200	-13.650	0.100
471.300	-12.408	0.100
471.400	-6.406	0.100
471.500	-28.033	0.100
471.600	-19.805	0.100
471.700	-15.476	0.100
471.800	-13.999	0.100
471.900	-22.350	0.100
472.000	-24.076	0.100
472.100	-4.776	0.100
472.200	-13.446	0.100
472.300	-6.943	0.100
472.400	-16.054	0.100
472.500	-20.950	0.100
472.600	-5.307	0.100
472.700	-3.859	0.100
472.800	-7.066	0.100
472.900	-16.295	0.100
473.000	-22.595	0.100
473.100	-7.251	0.100
473.200	3.538	0.100
473.300	-18.054	0.100
473.400	-18.200	0.100
473.500	-21.444	0.100
473.600	-19.030	0.100
473.700	-7.595	0.100
473.800	-33.440	0.099
473.900	-0.756	0.100
474.000	-6.039	0.100
474.100	-23.899	0.099
474.200	-7.823	0.100
474.300	-15.310	0.100
474.400	-16.167	0.100
474.500	-3.891	0.100
474.600	-21.268	0.100
474.700	-11.067	0.100
474.800	-3.077	0.100
474.900	-31.083	0.099
475.000	-21.503	0.100
475.100	-7.098	0.100
475.200	-12.789	0.100
475.300	-7.950	0.100
475.400	-5.356	0.100
475.500	-19.647	0.100
475.600	-23.361	0.099
475.700	-33.364	0.100
475.800	-6.168	0.100
475.900	-5.391	0.100
476.000	-5.319	0.100
476.100	-2.546	0.100
476.200	-5.931	0.100
476.300	-12.403	0.100
476.400	-11.306	0.100
476.500	-9.576	0.100
476.600	-19.526	0.100
476.700	-17.662	0.100
476.800	-13.242	0.100
476.900	-12.078	0.100
477.000	-5.334	0.100
477.100	-16.699	0.100
477.200	-29.391	0.100
477.300	-4.918	0.100
477.400	-14.798	0.100
477.500	-12.801	0.100
477.600	-16.482	0.100
477.700	-20.313	0.100
477.800	-8.966	0.100
477.900	-5.092	0.100
478.000	5.838	0.100
478.100	-25.528	0.100
478.200	6.013	0.100
478.300	-3.458	0.100
478.400	-24.035	0.100
478.500	-20.419	0.100
478.600	-8.168	0.100
478.700	-6.350	0.099
478.800	-18.571	0.100
478.900	-6.569	0.100
479.000	-8.083	0.100
479.100	-19.698	0.100
479.200	-24.077	0.100
479.300	-2.167	0.100
479.400	-9.618	0.100
479.500	-15.140	0.100
479.600	-16.414	0.100
479.700	-4.111	0.100
479.800	-13.688	0.100
479.900	-17.403	0.100
480.000	-17.727	0.100
480.100	-2.639	0.100
480.200	-24.942	0.100
480.300	9.396	0.100
480.400	-15.946	0.100
480.500	-8.206	0.100
480.600	-23.335	0.100
480.700	-11.914	0.100
480.800	14.991	0.100
480.900	-11.229	0.100
481.000	-20.600	0.100
481.100	-11.700	0.100
481.200	-10.155	0.100
481.300	-12.672	0.100
481.400	8.622	0.100
481.500	2.830	0.100
481.600	-6.941	0.100
481.700	-5.063	0.100
481.800	11.964	0.100
481.900	3.421	0.100
482.000	1.882	0.100
482.100	-11.392	0.100
482.200	-3.701	0.100
482.300	6.166	0.100
482.400	-2.261	0.100
482.500	2.347	0.100
482.600	1.210	0.100
482.700	6.736	0.100
482.800	6.540	0.100
482.900	-19.607	0.100
483.000	-1.724	0.100
483.100	6.716	0.100
483.200	16.993	0.100
483.300	22.473	0.100
483.400	12.938	0.100
483.500	7.736	0.100
483.600	9.453	0.100
483.700	3.788	0.100
483.800	13.005	0.100
483.900	9.073	0.100
484.000	6.580	0.100
484.100	3.269	0.100
484.200	1.112	0.100
484.300	6.587	0.100
484.400	-1.106	0.100
484.500	24.364	0.100
484.600	10.413	0.100
484.700	-2.091	0.100
484.800	6.383	0.100
484.900	4.111	0.100
485.000	-1.143	0.100
485.100	-3.734	0.100
485.200	22.618	0.100
485.300	-7.638	0.100
485.400	11.125	0.100
485.500	3.298	0.100
485.600	4.229	0.100
485.700	4.355	0.100
485.800	-4.265	0.100
485.900	1.531	0.100
486.000	11.693	0.100
486.100	0.880	0.100
486.200	16.037	0.100
486.300	-5.918	0.100
486.400	-1.555	0.100
486.500	10.651	0.100
486.600	17.996	0.100
486.700	3.608	0.100
486.800	1.136	0.100
486.900	-6.710	0.100
487.000	4.345	0.100
487.100	7.066	0.100
487.200	-12.037	0.100
487.300	4.449	0.100
487.400	15.205	0.100
487.500	-1.140	0.100
487.600	-6.566	0.100
487.700	18.737	0.100
487.800	3.108	0.100
487.900	5.509	0.100
488.000	-5.541	0.100
488.100	2.478	0.100
488.200	18.622	0.100
488.300	7.666	0.100
488.400	16.303	0.100
488.500	-0.481	0.100
488.600	3.494	0.100
488.700	14.779	0.100
488.800	-7.426	0.100
488.900	1.523	0.100
489.000	10.110	0.100
489.100	5.661	0.100
489.200	10.219	0.100
489.300	10.336	0.099
489.400	-0.254	0.100
489.500	-4.300	0.100
489.600	0.949	0.100
489.700	-3.481	0.100
489.800	23.839	0.100
489.900	3.431	0.100
490.000	-4.307	0.100
490.100	25.574	0.100
490.200	9.308	0.100
490.300	7.314	0.100
490.400	15.080	0.100
490.500	8.444	0.100
490.600	-5.272	0.100
490.700	6.519	0.100
490.800	19.070	0.100
490.900	1.682	0.100
491.000	8.259	0.100
491.100	2.902	0.100
491.200	11.502	0.100
491.300	6.501	0.100
491.400	1.188	0.100
491.500	22.383	0.100
491.600	-6.295	0.100
491.700	17.299	0.100
491.800	20.942	0.100
491.900	10.099	0.100
492.000	18.677	0.100
492.100	28.106	0.100
492.200	4.197	0.100
492.300	3.408	0.100
492.400	11.258	0.100
492.500	6.735	0.100
492.600	28.763	0.100
492.700	21.044	0.100
492.800	20.437	0.100
492.900	18.878	0.100
493.000	7.414	0.100
493.100	11.109	0.100
493.200	7.952	0.100
493.300	30.430	0.100
493.400	18.544	0.100
493.500	13.180	0.100
493.600	19.175	0.100
493.700	-1.116	0.100
493.800	31.839	0.100
493.900	17.576	0.100
494.000	16.618	0.100
494.100	24.409	0.100
494.200	25.102	0.100
494.300	17.493	0.100
494.400	27.001	0.100
494.500	19.548	0.100
494.600	26.583	0.099
494.700	20.136	0.100
494.800	29.871	0.100
494.900	29.123	0.099
495.000	14.899	0.100
495.100	19.149	0.100
495.200	23.940	0.100
495.300	9.733	0.100
495.400	23.078	0.100
495.500	25.784	0.100
495.600	22.918	0.100
495.700	18.758	0.100
495.800	19.779	0.100
495.900	27.800	0.100
496.000	37.719	0.100
496.100	21.034	0.100
496.200	28.222	0.100
496.300	26.739	0.100
496.400	37.371	0.100
496.500	37.125	0.100
496.600	33.187	0.100
496.700	11.880	0.100
496.800	28.598	0.100
496.900	40.965	0.100
497.000	36.086	0.100
497.100	30.136	0.100
497.200	26.229	0.100
497.300	28.157	0.100
497.400	27.075	0.100
497.500	24.938	0.100
497.600	37.849	0.100
497.700	21.963	0.100
497.800	31.689	0.100
497.900	29.023	0.100
498.000	28.901	0.100
498.100	27.315	0.100
498.200	31.997	0.099
498.300	39.535	0.100
498.400	36.876	0.100
498.500	24.938	0.100
498.600	27.604	0.100
498.700	36.847	0.100
498.800	37.368	0.099
498.900	24.380	0.100
499.000	31.399	0.100
499.100	38.912	0.100
499.200	41.096	0.100
499.300	32.351	0.100
499.400	36.790	0.100
499.500	22.565	0.100
499.600	50.410	0.100
499.700	29.163	0.099
499.800	31.846	0.099
499.900	35.867	0.100
500.000	30.145	0.100
500.100	36.121	0.100
500.200	31.501	0.099
500.300	52.208	0.099
500.400	31.682	0.100
500.500	40.867	0.100
500.600	36.531	0.100
500.700	24.491	0.100
500.800	39.521	0.100
500.900	39.053	0.100
501.000	31.375	0.100
501.100	18.069	0.100
501.200	41.480	0.099
501.300	31.495	0.100
501.400	33.263	0.100
501.500	19.940	0.100
501.600	26.819	0.100
501.700	35.614	0.099
501.800	8.646	0.099
501.900	18.344	0.099
502.000	40.741	0.100
502.100	37.994	0.099
502.200	29.304	0.100
502.300	23.962	0.100
502.400	46.842	0.100
502.500	39.066	0.100
502.600	36.908	0.100
502.700	24.940	0.100
502.800	41.231	0.100
502.900	31.952	0.100
503.000	33.598	0.100
503.100	29.882	0.100
503.200	31.584	0.100
503.300	34.085	0.100
503.400	42.644	0.100
503.500	33.585	0.100
503.600	41.129	0.100
503.700	31.163	0.100
503.800	21.582	0.100
503.900	34.883	0.100
504.000	15.702	0.100
504.100	16.040	0.100
504.200	26.242	0.100
504.300	36.064	0.100
504.400	27.058	0.100
504.500	48.144	0.100
504.600	25.813	0.100
504.700	52.210	0.100
504.800	34.012	0.100
504.900	17.249	0.099
505.000	38.479	0.100
505.100	27.882	0.099
505.200	45.744	0.100
505.300	30.448	0.100
505.400	17.126	0.100
505.500	44.326	0.099
505.600	31.305	0.100
505.700	42.752	0.100
505.800	15.428	0.100
505.900	46.455	0.100
506.000	39.571	0.100
506.100	41.840	0.100
506.200	49.258	0.100
506.300	32.263	0.100
506.400	33.560	0.100
506.500	29.183	0.100
506.600	22.006	0.100
506.700	43.043	0.099
506.800	36.267	0.099
506.900	44.145	0.100
507.000	37.843	0.100
507.100	40.528	0.100
507.200	36.477	0.100
507.300	42.275	0.100
507.400	30.893	0.100
507.500	32.517	0.100
507.600	35.225	0.100
507.700	40.403	0.100
507.800	23.431	0.100
507.900	33.137	0.100
508.000	37.500	0.100
508.100	40.032	0.100
508.200	20.121	0.100
508.300	30.519	0.100
508.400	32.313	0.100
508.500	25.368	0.100
508.600	27.539	0.100
508.700	47.731	0.100
508.800	28.359	0.100
508.900	20.643	0.100
509.000	36.305	0.099
509.100	37.368	0.100
509.200	38.291	0.100
509.300	34.892	0.100
509.400	38.188	0.100
509.500	31.005	0.100
509.600	25.878	0.100
509.700	32.385	0.100
509.800	28.091	0.100
509.900	42.892	0.100
510.000	36.817	0.100
510.100	31.782	0.100
510.200	21.460	0.100
510.300	31.513	0.100
510.400	29.950	0.100
510.500	36.199	0.100
510.600	29.429	0.100
510.700	30.061	0.100
510.800	45.828	0.100
510.900	18.661	0.100
511.000	34.577	0.100
511.100	31.722	0.100
511.200	32.067	0.100
511.300	45.233	0.100
511.400	26.622	0.100
511.500	24.908	0.100
511.600	38.878	0.100
511.700	40.122	0.100
511.800	25.936	0.100
511.900	32.830	0.100
512.000	31.674	0.100
512.100	35.445	0.100
512.200	16.579	0.100
512.300	35.404	0.100
512.400	34.694	0.100
512.500	47.356	0.100
512.600	38.657	0.100
512.700	28.061	0.100
512.800	32.533	0.100
512.900	14.522	0.099
513.000	25.216	0.100
513.100	17.142	0.100
513.200	39.118	0.100
513.300	35.138	0.100
513.400	33.788	0.099
513.500	34.572	0.100
513.600	18.215	0.100
513.700	39.037	0.100
513.800	46.855	0.099
513.900	31.664	0.100
514.000	24.555	0.100
514.100	20.552	0.100
514.200	18.914	0.100
514.300	38.568	0.100
514.400	35.458	0.100
514.500	32.641	0.100
514.600	49.740	0.100
514.700	42.876	0.100
514.800	26.222	0.100
514.900	28.245	0.100
515.000	28.779	0.100
515.100	23.550	0.100
515.200	45.417	0.100
515.300	22.291	0.099
515.400	24.257	0.100
515.500	39.061	0.100
515.600	24.254	0.100
515.700	37.116	0.100
515.800	37.506	0.100
515.900	32.778	0.099
516.000	15.055	0.100
516.100	41.205	0.100
516.200	32.681	0.100
516.300	33.604	0.100
516.400	38.478	0.100
516.500	34.469	0.100
516.600	18.747	0.099
516.700	30.800	0.100
516.800	53.009	0.100
516.900	31.398	0.100
517.000	29.905	0.100
517.100	38.408	0.100
517.200	15.717	0.099
517.300	27.479	0.099
517.400	17.350	0.100
517.500	36.292	0.100
517.600	41.609	0.100
517.700	16.337	0.100
517.800	24.998	0.099
517.900	24.824	0.100
518.000	24.345	0.100
518.100	46.535	0.100
518.200	32.600	0.100
518.300	29.249	0.100
518.400	26.624	0.100
518.500	12.680	0.100
518.600	38.588	0.100
518.700	42.757	0.100
518.800	23.506	0.100
518.900	31.453	0.100
519.000	38.130	0.100
519.100	32.528	0.099
519.200	29.526	0.100
519.300	28.910	0.100
519.400	38.197	0.100
519.500	40.717	0.100
519.600	46.765	0.100
519.700	7.808	0.099
519.800	40.419	0.100
519.900	32.573	0.100
520.000	12.244	0.099
520.100	37.844	0.099
520.200	33.088	0.100
520.300	30.906	0.100
520.400	45.177	0.100
520.500	37.467	0.100
520.600	18.089	0.100
520.700	36.515	0.099
520.800	11.474	0.099
520.900	51.732	0.100
521.000	31.373	0.099
521.100	25.916	0.100
521.200	30.992	0.100
521.300	23.581	0.100
521.400	24.657	0.100
521.500	37.661	0.100
521.600	23.836	0.100
521.700	29.991	0.100
521.800	28.146	0.100
521.900	26.605	0.100
522.000	20.258	0.100
522.100	31.467	0.099
522.200	39.856	0.100
522.300	30.162	0.100
522.400	17.732	0.100
522.500	56.851	0.100
522.600	40.835	0.099
522.700	19.341	0.100
522.800	22.493	0.100
522.900	24.290	0.100
523.000	27.520	0.100
523.100	29.076	0.100
523.200	24.537	0.100
523.300	29.799	0.100
523.400	12.610	0.100
523.500	42.802	0.100
523.600	41.385	0.100
523.700	32.565	0.100
523.800	27.339	0.100
523.900	37.824	0.100
524.000	40.116	0.100
524.100	26.688	0.100
524.200	43.043	0.100
524.300	18.014	0.099
524.400	37.008	0.100
524.500	42.924	0.100
524.600	11.608	0.100
524.700	30.589	0.100
524.800	25.321	0.100
524.900	32.773	0.100
525.000	25.420	0.099
525.100	32.359	0.100
525.200	21.008	0.100
525.300	17.846	0.099
525.400	31.598	0.100
525.500	35.743	0.099
525.600	37.424	0.100
525.700	18.572	0.100
525.800	38.529	0.100
525.900	29.869	0.100
526.000	20.952	0.100
526.100	32.318	0.100
526.200	38.676	0.100
526.300	41.364	0.100
526.400	25.359	0.100
526.500	32.995	0.100
526.600	39.385	0.100
526.700	35.069	0.100
526.800	35.178	0.100
526.900	22.049	0.100
527.000	24.023	0.100
527.100	30.060	0.100
527.200	28.427	0.100
527.300	22.544	0.100
527.400	22.737	0.099
527.500	34.324	0.099
527.600	41.431	0.100
527.700	22.825	0.100
527.800	14.012	0.100
527.900	24.149	0.100
528.000	41.354	0.100
528.100	26.988	0.100
528.200	23.252	0.100
528.300	25.262	0.100
528.400	37.341	0.100
528.500	33.006	0.100
528.600	20.784	0.099
528.700	16.907	0.100
528.800	47.526	0.100
528.900	26.228	0.100
529.000	22.718	0.100
529.100	33.833	0.099
529.200	39.215	0.100
529.300	19.313	0.100
529.400	30.352	0.100
529.500	34.367	0.100
529.600	35.854	0.100
529.700	31.347	0.100
529.800	16.463	0.100
529.900	34.395	0.100
530.000	32.452	0.100
530.100	30.317	0.100
530.200	18.068	0.100
530.300	26.253	0.099
530.400	21.740	0.100
530.500	30.118	0.100
530.600	36.697	0.100
530.700	32.102	0.100
530.800	37.221	0.100
530.900	47.479	0.100
531.000	29.310	0.100
531.100	37.031	0.099
531.200	29.734	0.100
531.300	39.370	0.100
531.400	30.681	0.100
531.500	22.150	0.100
531.600	37.742	0.100
531.700	32.043	0.100
531.800	20.304	0.100
531.900	29.960	0.099
532.000	26.345	0.100
532.100	32.421	0.099
532.200	28.089	0.100
532.300	21.765	0.100
532.400	19.609	0.100
532.500	19.066	0.100
532.600	27.163	0.100
532.700	24.313	0.099
532.800	50.786	0.100
532.900	35.907	0.100
533.000	20.826	0.100
533.100	10.314	0.100
533.200	33.797	0.100
533.300	26.369	0.100
533.400	30.067	0.100
533.500	25.673	0.099
533.600	27.799	0.100
533.700	23.538	0.100
533.800	32.680	0.100
533.900	17.070	0.100
534.000	31.981	0.100
534.100	42.142	0.100
534.200	32.848	0.100
534.300	16.470	0.100
534.400	42.430	0.100
534.500	29.017	0.100
534.600	15.024	0.100
534.700	29.148	0.100
534.800	34.023	0.100
534.900	36.386	0.100
535.000	35.777	0.100
535.100	37.604	0.100
535.200	10.168	0.099
535.300	32.639	0.100
535.400	28.845	0.100
535.500	36.586	0.100
535.600	22.985	0.100
535.700	37.391	0.100
535.800	21.972	0.100
535.900	35.922	0.100
536.000	33.579	0.100
536.100	28.164	0.100
536.200	15.846	0.100
536.300	40.166	0.100
536.400	11.205	0.100
536.500	43.973	0.100
536.600	27.946	0.100
536.700	22.407	0.100
536.800	36.861	0.100
536.900	36.441	0.100
537.000	21.194	0.100
537.100	27.756	0.100
537.200	31.276	0.100
537.300	32.129	0.100
537.400	27.037	0.100
537.500	24.396	0.100
537.600	21.823	0.100
537.700	21.447	0.100
537.800	32.962	0.100
537.900	32.015	0.100
538.000	18.225	0.100
538.100	29.556	0.100
538.200	29.457	0.100
538.300	43.295	0.100
538.400	33.335	0.100
538.500	12.053	0.100
538.600	23.100	0.099
538.700	31.748	0.100
538.800	27.733	0.100
538.900	37.800	0.100
539.000	24.121	0.100
539.100	39.414	0.100
539.200	41.760	0.100
539.300	27.113	0.100
539.400	20.317	0.100
539.500	21.127	0.100
539.600	15.036	0.100
539.700	34.130	0.100
539.800	33.633	0.100
539.900	29.388	0.100
540.000	25.203	0.100
540.100	23.821	0.100
540.200	24.424	0.100
540.300	24.606	0.100
540.400	22.007	0.100
540.500	36.376	0.100
540.600	30.427	0.100
540.700	31.850	0.100
540.800	12.704	0.100
540.900	33.283	0.100
541.000	23.670	0.099
541.100	16.753	0.100
541.200	19.460	0.100
541.300	32.063	0.100
541.400	30.276	0.100
541.500	20.572	0.100
541.600	19.836	0.100
541.700	14.373	0.100
541.800	13.667	0.100
541.900	13.543	0.100
542.000	0.286	0.100
542.100	9.427	0.100
542.200	13.241	0.100
542.300	9.803	0.100
542.400	5.365	0.100
542.500	6.067	0.100
542.600	0.688	0.100
542.700	-3.311	0.100
542.800	0.691	0.100
542.900	-1.604	0.100
543.000	-6.285	0.099
543.100	4.798	0.100
543.200	1.853	0.100
543.300	10.488	0.099
543.400	3.931	0.100
543.500	-1.659	0.100
543.600	-4.378	0.100
543.700	-3.480	0.100
543.800	7.631	0.100
543.900	-10.059	0.100
544.000	-5.675	0.100
544.100	-35.011	0.100
544.200	14.190	0.100
544.300	-1.898	0.100
544.400	-9.181	0.100
544.500	-1.828	0.100
544.600	-10.438	0.100
544.700	-3.716	0.099
544.800	4.315	0.100
544.900	3.652	0.100
545.000	0.046	0.100
545.100	-8.389	0.100
545.200	-15.177	0.100
545.300	-5.386	0.100
545.400	3.676	0.100
545.500	13.150	0.100
545.600	-12.187	0.100
545.700	-17.976	0.100
545.800	-1.954	0.100
545.900	12.750	0.100
546.000	-0.624	0.100
546.100	-21.871	0.100
546.200	-8.150	0.100
546.300	-0.543	0.100
546.400	-12.704	0.100
546.500	-14.408	0.100
546.600	2.591	0.100
546.700	5.931	0.100
546.800	-4.685	0.100
546.900	-2.932	0.100
547.000	-11.746	0.100
547.100	-16.097	0.099
547.200	-3.342	0.100
547.300	3.872	0.100
547.400	-3.395	0.100
547.500	-32.462	0.100
547.600	6.649	0.100
547.700	-3.238	0.100
547.800	-3.292	0.100
547.900	2.140	0.100
548.000	-2.323	0.100
548.100	-0.371	0.100
548.200	-1.939	0.100
548.300	-14.392	0.100
548.400	1.562	0.100
548.500	-1.442	0.100
548.600	-5.449	0.100
548.700	-10.350	0.100
548.800	-4.733	0.100
548.900	-4.041	0.100
549.000	-4.426	0.100
549.100	-7.246	0.100
549.200	0.587	0.099
549.300	-2.626	0.100
549.400	13.923	0.100
549.500	7.888	0.100
549.600	-6.462	0.100
549.700	0.551	0.100
549.800	-6.967	0.100
549.900	-20.824	0.100
550.000	-0.950	0.100
550.100	-11.664	0.100
550.200	-0.183	0.100
550.300	-17.780	0.100
550.400	-10.129	0.100
550.500	7.836	0.100
550.600	-2.605	0.100
550.700	-18.878	0.100
550.800	-1.500	0.100
550.900	-24.629	0.100
551.000	-9.176	0.100
551.100	-11.796	0.100
551.200	-20.785	0.100
551.300	-10.780	0.099
551.400	-7.757	0.100
551.500	-17.109	0.099
551.600	-8.740	0.100
551.700	6.721	0.100
551.800	5.360	0.100
551.900	2.017	0.100
552.000	-10.507	0.100
552.100	-14.207	0.100
552.200	13.489	0.100
552.300	-1.326	0.100
552.400	-3.326	0.100
552.500	-5.177	0.100
552.600	-4.850	0.100
552.700	-21.435	0.100
552.800	-3.019	0.100
552.900	1.421	0.100
553.000	-2.928	0.100
553.100	5.964	0.100
553.200	-11.557	0.099
553.300	-0.294	0.100
553.400	-6.921	0.100
553.500	-17.708	0.099
553.600	13.375	0.099
553.700	-23.071	0.100
553.800	-3.131	0.100
553.900	4.318	0.100
554.000	1.620	0.100
554.100	-8.918	0.100
554.200	-3.799	0.100
554.300	-4.373	0.100
554.400	-9.853	0.100
554.500	-7.206	0.100
554.600	-17.259	0.100
554.700	-8.376	0.100
554.800	-8.856	0.099
554.900	-4.142	0.099
555.000	-6.060	0.100
555.100	-9.575	0.099
555.200	6.130	0.100
555.300	-17.233	0.099
555.400	-11.459	0.100
555.500	-8.645	0.100
555.600	-12.331	0.100
555.700	-3.670	0.100
555.800	11.703	0.100
555.900	-11.826	0.099
556.000	-13.809	0.100
556.100	-6.852	0.100
556.200	-12.396	0.100
556.300	-2.431	0.100
556.400	-16.745	0.100
556.500	-11.272	0.100
556.600	-9.709	0.100
556.700	-1.328	0.100
556.800	-6.114	0.100
556.900	-5.566	0.100
557.000	-9.931	0.100
557.100	-5.307	0.100
557.200	-13.950	0.099
557.300	-0.163	0.099
557.400	-4.703	0.100
557.500	3.450	0.100
557.600	-22.922	0.100
557.700	-6.455	0.099
557.800	-3.808	0.100
557.900	-2.313	0.100
558.000	-8.419	0.099
558.100	-10.722	0.100
558.200	-11.000	0.100
558.300	-20.610	0.100
558.400	-25.972	0.100
558.500	-1.755	0.100
558.600	-1.954	0.099
558.700	-11.058	0.099
558.800	-20.887	0.100
558.900	4.022	0.100
559.000	-15.480	0.100
559.100	-10.935	0.100
559.200	-10.614	0.100
559.300	-13.873	0.100
559.400	-15.314	0.100
559.500	-1.803	0.100
559.600	-12.173	0.100
559.700	-2.689	0.099
559.800	-9.078	0.100
559.900	-2.058	0.099
560.000	-27.117	0.100
560.100	-3.465	0.100
560.200	-9.840	0.100
560.300	-7.208	0.100
560.400	0.428	0.100
560.500	-12.159	0.100
560.600	-1.122	0.100
560.700	-2.792	0.100
560.800	-12.837	0.099
560.900	-13.768	0.100
561.000	-13.417	0.099
561.100	-3.700	0.099
561.200	-3.025	0.100
561.300	-25.403	0.100
561.400	-25.476	0.099
561.500	-12.692	0.099
561.600	4.051	0.100
561.700	-24.229	0.100
561.800	-7.390	0.099
561.900	0.536	0.100
562.000	-15.176	0.100
562.100	-14.848	0.099
562.200	-8.588	0.100
562.300	4.256	0.100
562.400	-24.121	0.099
562.500	-15.673	0.099
562.600	-5.190	0.099
562.700	-4.690	0.100
562.800	-23.726	0.100
562.900	-9.843	0.100
563.000	-4.504	0.100
563.100	-16.208	0.100
563.200	-14.571	0.100
563.300	-14.353	0.100
563.400	3.803	0.100
563.500	-29.398	0.100
563.600	-17.598	0.100
563.700	-13.336	0.100
563.800	-16.539	0.100
563.900	-14.906	0.100
564.000	-0.174	0.100
564.100	-10.234	0.100
564.200	-17.422	0.100
564.300	-2.711	0.099
564.400	-7.613	0.099
564.500	-24.516	0.099
564.600	-15.411	0.100
564.700	-3.744	0.100
564.800	-27.756	0.100
564.900	-10.999	0.100
565.000	-4.634	0.100
565.100	-1.297	0.100
565.200	-9.304	0.100
565.300	0.801	0.099
565.400	-21.119	0.100
565.500	-7.852	0.099
565.600	-5.974	0.100
565.700	-4.481	0.100
565.800	-3.057	0.100
565.900	-12.468	0.100
566.000	-32.381	0.100
566.100	-4.318	0.099
566.200	-1.018	0.100
566.300	-18.284	0.100
566.400	-28.578	0.100
566.500	-19.789	0.100
566.600	-5.615	0.100
566.700	2.132	0.100
566.800	-30.259	0.100
566.900	0.299	0.100
567.000	-9.363	0.100
567.100	-25.867	0.100
567.200	-9.779	0.100
567.300	-4.449	0.100
567.400	-20.001	0.100
567.500	-13.310	0.100
567.600	-4.584	0.100
567.700	-26.404	0.100
567.800	-6.467	0.099
567.900	0.860	0.100
568.000	-5.417	0.100
568.100	-20.018	0.100
568.200	-6.564	0.100
568.300	-4.782	0.099
568.400	-21.391	0.100
568.500	-5.416	0.100
568.600	-13.979	0.099
568.700	-12.143	0.100
568.800	-10.916	0.100
568.900	-14.994	0.100
569.000	-33.853	0.100
569.100	-18.528	0.099
569.200	-2.392	0.100
569.300	-2.466	0.100
569.400	-19.980	0.100
569.500	-16.583	0.100
569.600	-12.395	0.100
569.700	-3.211	0.099
569.800	-24.985	0.100
569.900	-29.509	0.099
570.000	-19.726	0.099
570.100	-30.229	0.100
570.200	-2.573	0.100
570.300	-17.344	0.100
570.400	-3.296	0.100
570.500	-14.455	0.100
570.600	-33.213	0.099
570.700	-9.925	0.100
570.800	-17.670	0.100
570.900	-8.544	0.100
571.000	-5.220	0.099
571.100	-16.845	0.100
571.200	-25.388	0.099
571.300	-27.206	0.099
571.400	-15.831	0.099
571.500	-20.727	0.100
571.600	-13.716	0.100
571.700	1.451	0.100
571.800	-5.372	0.100
571.900	-29.163	0.100
572.000	-12.771	0.100
572.100	-14.485	0.100
572.200	-3.182	0.099
572.300	-10.347	0.099
572.400	-12.304	0.100
572.500	-11.398	0.100
572.600	-21.586	0.100
572.700	-9.740	0.100
572.800	-22.146	0.100
572.900	-22.949	0.099
573.000	-6.549	0.100
573.100	-14.764	0.100
573.200	-7.537	0.100
573.300	-12.670	0.100
573.400	-11.628	0.100
573.500	-13.312	0.099
573.600	-9.484	0.099
573.700	-9.052	0.100
573.800	-12.542	0.100
573.900	-23.214	0.100
574.000	-15.494	0.100
574.100	-13.753	0.099
574.200	-4.341	0.100
574.300	-35.080	0.099
574.400	-9.676	0.099
574.500	-7.970	0.100
574.600	-9.718	0.100
574.700	-1.447	0.100
574.800	-6.671	0.100
574.900	-22.714	0.100
575.000	-13.580	0.100
575.100	-23.767	0.100
575.200	-19.558	0.100
575.300	-17.935	0.099
575.400	-19.459	0.100
575.500	-13.419	0.100
575.600	-10.274	0.099
575.700	-29.577	0.099
575.800	4.509	0.100
575.900	-8.758	0.100
576.000	-5.504	0.099
576.100	-15.716	0.100
576.200	-18.810	0.100
576.300	-21.885	0.100
576.400	-14.766	0.099
576.500	-9.017	0.100
576.600	-4.326	0.100
576.700	-5.964	0.100
576.800	-20.718	0.100
576.900	-12.160	0.100
577.000	-20.423	0.100
577.100	-4.175	0.100
577.200	-17.662	0.100
577.300	-24.107	0.100
577.400	1.234	0.100
577.500	-7.798	0.100
577.600	-18.090	0.100
577.700	-9.334	0.100
577.800	-23.092	0.100
577.900	-1.349	0.100
578.000	-15.853	0.100
578.100	-14.131	0.100
578.200	-14.572	0.100
578.300	-15.941	0.100
578.400	-29.188	0.100
578.500	-4.720	0.100
578.600	-5.976	0.100
578.700	-19.119	0.100
578.800	-20.122	0.100
578.900	-17.756	0.099
579.000	-12.329	0.099
579.100	-19.549	0.100
579.200	-21.222	0.099
579.300	-18.417	0.100
579.400	-14.717	0.100
579.500	-20.875	0.099
579.600	-16.274	0.099
579.700	-3.539	0.100
579.800	-23.445	0.099
579.900	-26.569	0.099
580.000	4.570	0.100
580.100	-11.121	0.099
580.200	-23.167	0.100
580.300	4.047	0.099
580.400	-8.650	0.099
580.500	-19.995	0.100
580.600	-21.716	0.100
580.700	-12.404	0.100
580.800	-5.915	0.100
580.900	-19.375	0.099
581.000	-29.975	0.099
581.100	-16.566	0.099
581.200	-22.277	0.099
581.300	-23.292	0.099
581.400	-15.463	0.099
581.500	-4.978	0.099
581.600	-2.923	0.099
581.700	-26.719	0.099
581.800	-13.134	0.100
581.900	-17.386	0.099
582.000	-12.822	0.099
582.100	-3.496	0.099
582.200	-8.802	0.099
582.300	-29.477	0.100
582.400	-4.997	0.100
582.500	-14.440	0.099
582.600	-26.235	0.099
582.700	-7.679	0.100
582.800	-17.931	0.100
582.900	-12.889	0.099
583.000	-13.687	0.099
583.100	-13.961	0.099
583.200	-10.452	0.099
583.300	-13.034	0.099
583.400	1.564	0.099
583.500	-11.102	0.099
583.600	-4.574	0.099
583.700	-28.562	0.099
583.800	-9.309	0.099
583.900	-28.585	0.099
584.000	-6.248	0.099
584.100	6.630	0.100
584.200	-21.816	0.100
584.300	-6.598	0.099
584.400	-25.051	0.099
584.500	-6.856	0.100
584.600	-12.697	0.100
584.700	-7.988	0.099
584.800	-7.568	0.100
584.900	-20.903	0.099
585.000	-19.087	0.100
585.100	3.218	0.100
585.200	-22.328	0.099
585.300	-17.487	0.100
585.400	-19.033	0.099
585.500	-3.793	0.099
585.600	-8.515	0.099
585.700	-19.137	0.099
585.800	-22.128	0.100
585.900	-12.358	0.100
586.000	-24.935	0.099
586.100	-13.964	0.099
586.200	-24.610	0.100
586.300	-16.196	0.100
586.400	-1.241	0.100
586.500	-16.297	0.100
586.600	-7.685	0.100
586.700	-21.336	0.100
586.800	-19.600	0.099
586.900	-18.495	0.100
587.000	-1.865	0.099
587.100	-26.940	0.100
587.200	3.900	0.099
587.300	-26.707	0.099
587.400	-5.606	0.099
587.500	-32.553	0.100
587.600	-11.213	0.100
587.700	-11.648	0.100
587.800	-19.154	0.099
587.900	-16.213	0.100
588.000	-13.115	0.099
588.100	-12.697	0.100
588.200	-17.372	0.100
588.300	-15.060	0.100
588.400	-20.153	0.099
588.500	-1.602	0.100
588.600	-19.917	0.100
588.700	-25.070	0.100
588.800	-5.322	0.100
588.900	-11.162	0.099
589.000	-16.470	0.100
589.100	-8.369	0.099
589.200	-11.473	0.099
589.300	-18.610	0.100
589.400	-22.833	0.099
589.500	-14.210	0.100
589.600	-14.735	0.100
589.700	2.309	0.100
589.800	-21.213	0.100
589.900	-17.143	0.099
590.000	-18.785	0.100
590.100	-24.120	0.100
590.200	-12.868	0.100
590.300	-12.842	0.100
590.400	-19.186	0.099
590.500	-4.635	0.100
590.600	-18.569	0.099
590.700	-12.271	0.100
590.800	-24.043	0.100
590.900	-4.215	0.100
591.000	-16.595	0.099
591.100	-9.606	0.100
591.200	-17.606	0.100
591.300	-15.073	0.100
591.400	-14.122	0.100
591.500	-26.157	0.099
591.600	-4.510	0.100
591.700	-6.480	0.099
591.800	-23.456	0.100
591.900	-14.218	0.100
592.000	-0.606	0.100
592.100	-2.325	0.100
592.200	-15.089	0.100
592.300	-12.124	0.100
592.400	-16.510	0.100
592.500	-16.906	0.100
592.600	-11.466	0.100
592.700	-10.244	0.099
592.800	-20.415	0.100
592.900	-30.471	0.100
593.000	-32.041	0.100
593.100	-18.254	0.100
593.200	-1.116	0.100
593.300	-1.339	0.100
593.400	-16.079	0.100
593.500	-26.038	0.100
593.600	-5.805	0.100
593.700	-7.561	0.100
593.800	-13.298	0.099
593.900	-23.525	0.100
594.000	-4.070	0.100
594.100	-12.919	0.100
594.200	-26.695	0.100
594.300	-16.456	0.100
594.400	-8.680	0.100
594.500	-16.745	0.099
594.600	-6.899	0.100
594.700	-17.739	0.099
594.800	-21.578	0.100
594.900	-14.576	0.100
595.000	-20.676	0.100
595.100	-24.757	0.100
595.200	-8.329	0.100
595.300	-7.769	0.099
595.400	-16.820	0.100
595.500	-13.758	0.100
595.600	-14.002	0.100
595.700	-4.476	0.100
595.800	-26.196	0.099
595.900	-7.849	0.100
596.000	-25.022	0.100
596.100	-23.704	0.100
596.200	-3.977	0.100
596.300	-0.974	0.100
596.400	-17.370	0.100
596.500	-11.638	0.100
596.600	-24.829	0.100
596.700	-9.199	0.100
596.800	-34.064	0.100
596.900	-18.593	0.100
597.000	-12.685	0.100
597.100	-9.423	0.100
597.200	-15.617	0.100
597.300	-28.725	0.100
597.400	-20.179	0.100
597.500	-0.520	0.100
597.600	-1.182	0.100
597.700	-18.786	0.100
597.800	-21.507	0.100
597.900	-15.478	0.100
598.000	-14.094	0.100
598.100	-8.347	0.100
598.200	-18.127	0.100
598.300	3.553	0.099
598.400	-9.741	0.100
598.500	-3.916	0.100
598.600	-18.300	0.100
598.700	-16.152	0.100
598.800	-11.500	0.100
598.900	-15.031	0.100
599.000	-5.694	0.100
599.100	8.416	0.100
599.200	6.257	0.100
599.300	-17.960	0.100
599.400	-20.824	0.100
599.500	-20.864	0.100
599.600	-15.248	0.100
599.700	-2.511	0.100
599.800	-3.584	0.100
599.900	-14.767	0.100
600.000	-16.824	0.100
600.100	-19.899	0.100
600.200	-10.337	0.100
600.300	-12.998	0.100
600.400	-14.175	0.100
600.500	-10.824	0.100
600.600	-14.950	0.100
600.700	-9.915	0.100
600.800	-5.009	0.100
600.900	-14.713	0.100
601.000	-16.248	0.100
601.100	-14.245	0.100
601.200	-17.130	0.100
601.300	-24.971	0.100
601.400	3.412	0.100
601.500	-19.502	0.100
601.600	-9.310	0.100
601.700	-14.847	0.100
601.800	-7.134	0.100
601.900	-14.479	0.100
602.000	-21.907	0.100
602.100	-19.933	0.100
602.200	-3.811	0.100
602.300	-27.952	0.100
602.400	-22.311	0.100
602.500	-26.849	0.100
602.600	-18.925	0.100
602.700	-3.699	0.100
602.800	-10.304	0.100
602.900	-26.296	0.100
603.000	-23.506	0.100
603.100	-20.988	0.100
603.200	-2.877	0.100
603.300	-21.327	0.100
603.400	-9.483	0.100
603.500	-8.448	0.100
603.600	-7.344	0.100
603.700	-10.144	0.100
603.800	-20.895	0.100
603.900	-6.493	0.100
604.000	-16.753	0.100
604.100	10.874	0.100
604.200	-26.313	0.100
604.300	-5.908	0.100
604.400	-11.807	0.100
604.500	-26.033	0.100
604.600	-19.049	0.100
604.700	-12.653	0.100
604.800	-12.010	0.100
604.900	-18.162	0.100
605.000	-3.654	0.100
605.100	-18.921	0.100
605.200	-20.873	0.100
605.300	-15.792	0.100
605.400	-16.131	0.100
605.500	-16.365	0.100
605.600	-18.538	0.100
605.700	-2.889	0.100
605.800	-25.880	0.100
605.900	-9.432	0.100
606.000	-16.443	0.100
606.100	-8.442	0.100
606.200	-18.418	0.100
606.300	-1.746	0.100
606.400	-7.686	0.099
606.500	-18.634	0.100
606.600	-23.591	0.100
606.700	-13.372	0.100
606.800	-2.151	0.100
606.900	-13.234	0.100
607.000	-3.449	0.100
607.100	-1.817	0.100
607.200	-20.494	0.100
607.300	-24.727	0.100
607.400	-17.242	0.100
607.500	-40.573	0.100
607.600	-26.251	0.100
607.700	14.571	0.100
607.800	-31.000	0.100
607.900	-14.281	0.100
608.000	-20.158	0.100
608.100	-7.894	0.100
608.200	-24.194	0.100
608.300	-18.437	0.100
608.400	-26.148	0.100
608.500	-11.010	0.100
608.600	-14.823	0.100
608.700	-18.311	0.100
608.800	-10.627	0.100
608.900	-7.348	0.100
609.000	-29.763	0.099
609.100	8.807	0.100
609.200	-2.415	0.100
609.300	-14.523	0.100
609.400	-10.224	0.100
609.500	-9.525	0.100
609.600	-8.738	0.100
609.700	-23.689	0.099
609.800	-16.521	0.100
609.900	-11.807	0.100
610.000	-20.639	0.100
610.100	-14.785	0.100
610.200	-16.854	0.100
610.300	-12.685	0.100
610.400	-17.819	0.100
610.500	3.527	0.100
610.600	-27.467	0.100
610.700	-3.945	0.100
610.800	-17.017	0.100
610.900	-6.665	0.100
611.000	-12.725	0.099
611.100	-3.650	0.099
611.200	-27.582	0.100
611.300	-23.200	0.100
611.400	-16.718	0.100
611.500	-10.061	0.100
611.600	-12.483	0.099
611.700	-1.552	0.100
611.800	-21.138	0.100
611.900	-7.765	0.100
612.000	-15.085	0.100
612.100	-12.111	0.100
612.200	-13.384	0.100
612.300	-10.020	0.100
612.400	-14.965	0.100
612.500	-21.500	0.100
612.600	-20.330	0.099
612.700	-5.385	0.100
612.800	-16.338	0.100
612.900	-19.503	0.100
613.000	-11.998	0.100
613.100	-12.269	0.100
613.200	-17.309	0.100
613.300	-6.899	0.100
613.400	-17.902	0.100
613.500	-8.548	0.100
613.600	-14.312	0.100
613.700	-20.179	0.100
613.800	-7.974	0.100
613.900	-18.766	0.100
614.000	-12.167	0.100
614.100	-5.314	0.100
614.200	-22.158	0.100
614.300	-32.440	0.100
614.400	-13.153	0.100
614.500	1.977	0.100
614.600	-13.470	0.100
614.700	0.587	0.100
614.800	-16.182	0.100
614.900	-26.118	0.100
615.000	-9.167	0.100
615.100	-17.052	0.100
615.200	-18.151	0.100
615.300	-8.819	0.100
615.400	0.105	0.100
615.500	-21.664	0.100
615.600	-8.515	0.100
615.700	-6.533	0.100
615.800	-12.741	0.100
615.900	-15.313	0.100
616.000	-17.129	0.100
616.100	-10.825	0.100
616.200	-16.190	0.100
616.300	-10.165	0.100
616.400	-8.775	0.100
616.500	-20.980	0.100
616.600	-12.693	0.100
616.700	-2.798	0.100
616.800	-18.668	0.100
616.900	-21.927	0.100
617.000	-32.075	0.100
617.100	-16.455	0.100
617.200	-10.213	0.100
617.300	-9.519	0.100
617.400	2.352	0.100
617.500	-15.399	0.100
617.600	-4.774	0.100
617.700	-18.527	0.100
617.800	-24.149	0.100
617.900	-19.775	0.100
618.000	-5.988	0.100
618.100	-19.625	0.100
618.200	-12.605	0.100
618.300	2.647	0.100
618.400	-12.368	0.100
618.500	-30.902	0.100
618.600	-13.531	0.100
618.700	-0.039	0.100
618.800	-12.942	0.100
618.900	2.391	0.100
619.000	-14.450	0.100
619.100	-7.338	0.100
619.200	0.694	0.100
619.300	-12.366	0.100
619.400	-25.316	0.100
619.500	-8.301	0.100
619.600	-13.519	0.100
619.700	-25.038	0.100
619.800	-9.781	0.100
619.900	-18.194	0.100
620.000	-14.299	0.100
620.100	-14.503	0.100
620.200	-19.052	0.100
620.300	4.113	0.100
620.400	-19.542	0.100
620.500	-31.035	0.100
620.600	-9.418	0.100
620.700	-13.092	0.100
620.800	-0.687	0.100
620.900	-7.579	0.100
621.000	-17.192	0.100
621.100	-11.059	0.100
621.200	-14.590	0.100
621.300	-19.655	0.100
621.400	-13.310	0.100
621.500	-11.722	0.100
621.600	-11.744	0.100
621.700	-28.060	0.100
621.800	-24.868	0.100
621.900	-9.931	0.100
622.000	1.473	0.100
622.100	-16.914	0.100
622.200	-5.732	0.100
622.300	1.715	0.100
622.400	-24.587	0.100
622.500	-16.248	0.100
622.600	-13.722	0.100
622.700	-9.392	0.100
622.800	-8.413	0.100
622.900	-10.794	0.100
623.000	-24.375	0.100
623.100	-19.926	0.100
623.200	-7.692	0.100
623.300	-29.586	0.100
623.400	3.554	0.100
623.500	-16.389	0.100
623.600	-12.497	0.100
623.700	-21.125	0.100
623.800	-13.333	0.100
623.900	-10.225	0.100
624.000	-18.002	0.100
624.100	-32.441	0.100
624.200	-25.631	0.100
624.300	5.545	0.100
624.400	-2.989	0.100
624.500	-20.562	0.100
624.600	-10.623	0.100
624.700	-5.981	0.100
624.800	-18.464	0.100
624.900	-14.024	0.100
625.000	-7.142	0.100
625.100	-17.267	0.100
625.200	-20.851	0.100
625.300	0.740	0.100
625.400	-16.793	0.100
625.500	-6.718	0.100
625.600	-29.205	0.100
625.700	-18.336	0.100
625.800	-15.302	0.100
625.900	-4.902	0.100
626.000	-27.992	0.100
626.100	-17.550	0.100
626.200	-2.498	0.100
626.300	-13.471	0.100
626.400	-11.015	0.100
626.500	-11.833	0.100
626.600	-21.304	0.100
626.700	-22.965	0.100
626.800	-8.669	0.100
626.900	-16.271	0.099
627.000	-0.567	0.100
627.100	-4.343	0.099
627.200	-10.955	0.100
627.300	-11.687	0.100
627.400	-16.083	0.100
627.500	-5.932	0.099
627.600	-16.315	0.100
627.700	-17.477	0.100
627.800	-12.417	0.100
627.900	-8.374	0.100
628.000	-21.208	0.100
628.100	-7.247	0.099
628.200	-14.279	0.100
628.300	-6.254	0.100
628.400	-26.426	0.100
628.500	-17.546	0.100
628.600	-6.565	0.100
628.700	-26.687	0.100
628.800	-3.931	0.100
628.900	-18.229	0.100
629.000	-21.422	0.100
629.100	-15.803	0.100
629.200	-6.794	0.100
629.300	-9.217	0.099
629.400	-5.108	0.100
629.500	-9.595	0.100
629.600	-17.429	0.099
629.700	-3.460	0.100
629.800	-10.284	0.100
629.900	-18.608	0.100
630.000	-14.853	0.100
630.100	-0.944	0.100
630.200	-14.823	0.100
630.300	-24.614	0.100
630.400	-8.326	0.099
630.500	-10.305	0.100
630.600	-25.298	0.100
630.700	-16.878	0.100
630.800	-13.379	0.100
630.900	-9.218	0.100
631.000	0.454	0.100
631.100	-4.747	0.100
631.200	-0.499	0.100
631.300	-16.868	0.099
631.400	1.237	0.100
631.500	-10.866	0.100
631.600	-17.371	0.099
631.700	-1.020	0.100
631.800	1.208	0.100
631.900	3.825	0.100
632.000	2.514	0.099
632.100	4.876	0.100
632.200	-0.649	0.100
632.300	-0.717	0.100
632.400	4.080	0.100
632.500	11.276	0.100
632.600	4.796	0.100
632.700	21.147	0.100
632.800	6.225	0.100
632.900	2.286	0.100
633.000	13.796	0.100
633.100	-3.770	0.100
633.200	0.757	0.100
633.300	-0.587	0.100
633.400	12.449	0.100
633.500	8.415	0.100
633.600	6.210	0.100
633.700	5.834	0.100
633.800	5.185	0.100
633.900	1.134	0.100
634.000	0.184	0.100
634.100	-0.141	0.099
634.200	8.014	0.099
634.300	-5.648	0.100
634.400	10.732	0.100
634.500	-0.833	0.100
634.600	11.791	0.100
634.700	13.818	0.100
634.800	-11.835	0.100
634.900	2.623	0.100
635.000	-10.787	0.100
635.100	5.187	0.100
635.200	-9.778	0.100
635.300	15.736	0.100
635.400	-9.282	0.100
635.500	-18.516	0.100
635.600	14.319	0.100
635.700	-8.783	0.100
635.800	0.556	0.100
635.900	3.232	0.100
636.000	3.756	0.100
636.100	12.761	0.100
636.200	4.738	0.100
636.300	9.024	0.100
636.400	-5.471	0.100
636.500	10.097	0.100
636.600	-3.352	0.100
636.700	6.466	0.100
636.800	-0.878	0.099
636.900	2.876	0.100
637.000	18.482	0.099
637.100	-0.420	0.100
637.200	-1.477	0.100
637.300	-2.386	0.100
637.400	-2.608	0.099
637.500	-3.573	0.100
637.600	0.187	0.100
637.700	-0.006	0.100
637.800	14.392	0.100
637.900	4.949	0.100
638.000	6.259	0.100
638.100	3.514	0.100
638.200	7.079	0.100
638.300	9.697	0.100
638.400	0.875	0.100
638.500	2.292	0.099
638.600	3.214	0.100
638.700	-0.328	0.100
638.800	11.229	0.100
638.900	16.744	0.100
639.000	-10.753	0.100
639.100	3.460	0.100
639.200	11.140	0.100
639.300	4.697	0.100
639.400	18.781	0.099
639.500	-4.140	0.099
639.600	8.920	0.100
639.700	7.183	0.100
639.800	0.768	0.100
639.900	16.220	0.100
640.000	19.386	0.100
640.100	-5.112	0.100
640.200	5.019	0.099
640.300	9.609	0.099
640.400	10.052	0.099
640.500	19.095	0.100
640.600	0.578	0.100
640.700	8.195	0.100
640.800	21.726	0.100
640.900	8.362	0.099
641.000	9.219	0.100
641.100	10.085	0.100
641.200	17.220	0.100
641.300	20.315	0.099
641.400	2.416	0.099
641.500	21.662	0.100
641.600	14.092	0.100
641.700	2.871	0.100
641.800	14.044	0.100
641.900	32.165	0.100
642.000	14.707	0.100
642.100	20.453	0.100
642.200	20.683	0.100
642.300	15.115	0.099
642.400	-3.709	0.099
642.500	5.637	0.099
642.600	9.383	0.100
642.700	3.151	0.099
642.800	23.718	0.100
642.900	15.901	0.100
643.000	15.865	0.100
643.100	18.208	0.099
643.200	9.568	0.099
643.300	16.459	0.100
643.400	26.599	0.100
643.500	24.618	0.099
643.600	12.368	0.099
643.700	15.818	0.099
643.800	20.709	0.100
643.900	7.153	0.099
644.000	16.065	0.099
644.100	27.694	0.099
644.200	24.777	0.100
644.300	12.662	0.100
644.400	30.950	0.099
644.500	17.029	0.099
644.600	29.736	0.099
644.700	17.664	0.099
644.800	30.913	0.100
644.900	27.537	0.100
645.000	13.805	0.099
645.100	33.049	0.100
645.200	26.018	0.099
645.300	33.216	0.100
645.400	30.080	0.100
645.500	17.318	0.099
645.600	34.712	0.099
645.700	24.010	0.099
645.800	27.358	0.100
645.900	32.264	0.099
646.000	30.903	0.100
646.100	22.264	0.099
646.200	34.089	0.099
646.300	31.143	0.099
646.400	24.108	0.100
646.500	27.493	0.099
646.600	23.741	0.100
646.700	35.823	0.099
646.800	31.766	0.099
646.900	23.569	0.099
647.000	28.505	0.099
647.100	36.573	0.099
647.200	45.003	0.099
647.300	36.633	0.099
647.400	19.153	0.100
647.500	41.875	0.099
647.600	36.013	0.099
647.700	30.821	0.100
647.800	28.165	0.099
647.900	25.239	0.099
648.000	38.667	0.099
648.100	45.150	0.099
648.200	25.316	0.099
648.300	38.282	0.099
648.400	38.648	0.099
648.500	30.724	0.099
648.600	30.794	0.099
648.700	24.173	0.099
648.800	38.912	0.099
648.900	47.546	0.099
649.000	30.438	0.099
649.100	50.927	0.099
649.200	41.826	0.099
649.300	28.324	0.099
649.400	32.424	0.099
649.500	19.216	0.099
649.600	19.109	0.099
649.700	46.178	0.099
649.800	23.236	0.099
649.900	44.544	0.099
650.000	38.149	0.099
650.100	38.567	0.099
650.200	43.300	0.099
650.300	24.247	0.099
650.400	36.408	0.099
650.500	34.399	0.099
650.600	36.319	0.099
650.700	38.240	0.099
650.800	23.437	0.099
650.900	23.378	0.099
651.000	24.375	0.099
651.100	58.431	0.099
651.200	47.856	0.099
651.300	35.417	0.099
651.400	25.549	0.099
651.500	20.643	0.099
651.600	30.795	0.099
651.700	56.085	0.099
651.800	27.272	0.099
651.900	15.879	0.099
652.000	46.600	0.099
652.100	30.297	0.099
652.200	36.648	0.099
652.300	35.088	0.099
652.400	31.767	0.099
652.500	38.206	0.099
652.600	35.200	0.099
652.700	31.665	0.099
652.800	35.350	0.099
652.900	41.017	0.099
653.000	44.543	0.099
653.100	42.940	0.099
653.200	31.014	0.099
653.300	33.321	0.099
653.400	22.263	0.099
653.500	29.552	0.099
653.600	27.025	0.099
653.700	35.329	0.099
653.800	24.761	0.099
653.900	40.408	0.099
654.000	28.935	0.099
654.100	35.527	0.099
654.200	27.163	0.099
654.300	18.555	0.099
654.400	40.820	0.099
654.500	42.253	0.099
654.600	42.558	0.099
654.700	35.657	0.099
654.800	24.085	0.099
654.900	19.654	0.099
655.000	40.581	0.099
655.100	29.616	0.099
655.200	49.231	0.099
655.300	37.059	0.099
655.400	39.798	0.099
655.500	28.141	0.099
655.600	27.102	0.099
655.700	54.638	0.099
655.800	24.111	0.099
655.900	35.315	0.099
656.000	51.230	0.099
656.100	38.820	0.099
656.200	44.696	0.099
656.300	12.328	0.099
656.400	41.455	0.099
656.500	26.170	0.099
656.600	38.210	0.099
656.700	22.065	0.099
656.800	32.521	0.099
656.900	30.467	0.099
657.000	33.441	0.099
657.100	41.028	0.099
657.200	29.953	0.099
657.300	45.330	0.099
657.400	37.737	0.099
657.500	25.667	0.099
657.600	14.990	0.099
657.700	13.500	0.099
657.800	37.953	0.099
657.900	28.310	0.099
658.000	40.913	0.099
658.100	21.999	0.099
658.200	43.540	0.099
658.300	28.977	0.099
658.400	33.785	0.099
658.500	39.330	0.099
658.600	48.154	0.099
658.700	28.430	0.099
658.800	46.602	0.099
658.900	23.381	0.099
659.000	29.219	0.099
659.100	30.877	0.099
659.200	34.511	0.099
659.300	40.747	0.099
659.400	33.127	0.099
659.500	26.461	0.099
659.600	28.609	0.099
659.700	42.955	0.099
659.800	41.840	0.099
659.900	6.456	0.099
660.000	20.677	0.099
660.100	18.961	0.099
660.200	32.760	0.099
660.300	36.758	0.099
660.400	32.404	0.099
660.500	37.914	0.099
660.600	39.646	0.099
660.700	28.664	0.099
660.800	24.378	0.099
660.900	32.318	0.099
661.000	40.436	0.099
661.100	34.175	0.099
661.200	30.818	0.099
661.300	29.747	0.099
661.400	31.676	0.099
661.500	45.110	0.099
661.600	48.549	0.099
661.700	33.882	0.099
661.800	29.544	0.099
661.900	39.926	0.099
662.000	29.326	0.099
662.100	30.623	0.099
662.200	18.358	0.099
662.300	35.647	0.099
662.400	37.393	0.099
662.500	19.344	0.099
662.600	20.885	0.099
662.700	22.611	0.099
662.800	36.233	0.099
662.900	43.673	0.099
663.000	23.462	0.099
663.100	30.263	0.099
663.200	37.119	0.099
663.300	26.267	0.099
663.400	22.932	0.099
663.500	31.860	0.099
663.600	30.025	0.099
663.700	45.863	0.099
663.800	30.401	0.099
663.900	42.713	0.099
664.000	21.610	0.099
664.100	21.969	0.099
664.200	33.141	0.099
664.300	35.411	0.099
664.400	16.774	0.099
664.500	25.609	0.099
664.600	24.034	0.099
664.700	36.673	0.099
664.800	38.280	0.099
664.900	30.705	0.099
665.000	33.473	0.099
665.100	33.671	0.099
665.200	21.011	0.099
665.300	28.575	0.099
665.400	41.570	0.099
665.500	35.390	0.099
665.600	16.673	0.099
665.700	20.005	0.099
665.800	45.636	0.099
665.900	29.808	0.099
666.000	24.884	0.099
666.100	23.862	0.099
666.200	28.927	0.099
666.300	31.957	0.099
666.400	42.763	0.099
666.500	27.131	0.099
666.600	24.395	0.099
666.700	39.982	0.099
666.800	20.193	0.099
666.900	38.061	0.099
667.000	35.129	0.099
667.100	24.245	0.099
667.200	31.148	0.099
667.300	36.920	0.099
667.400	21.676	0.099
667.500	11.418	0.099
667.600	19.139	0.099
667.700	54.091	0.099
667.800	38.043	0.099
667.900	27.392	0.099
668.000	34.526	0.099
668.100	23.908	0.099
668.200	26.999	0.099
668.300	41.163	0.099
668.400	24.040	0.099
668.500	39.626	0.099
668.600	27.976	0.099
668.700	36.406	0.099
668.800	21.294	0.099
668.900	31.090	0.099
669.000	41.392	0.099
669.100	26.286	0.099
669.200	33.145	0.099
669.300	34.943	0.099
669.400	28.971	0.099
669.500	27.714	0.099
669.600	26.692	0.099
669.700	35.197	0.099
669.800	40.356	0.099
669.900	26.842	0.099
670.000	36.069	0.099
670.100	29.045	0.099
670.200	56.966	0.099
670.300	32.128	0.099
670.400	28.976	0.099
670.500	28.556	0.099
670.600	38.400	0.099
670.700	25.932	0.099
670.800	26.094	0.099
670.900	31.073	0.099
671.000	31.888	0.099
671.100	46.891	0.099
671.200	29.342	0.099
671.300	26.379	0.099
671.400	40.825	0.099
671.500	26.045	0.099
671.600	24.132	0.099
671.700	23.588	0.099
671.800	30.428	0.099
671.900	36.440	0.099
672.000	32.128	0.099
672.100	31.081	0.099
672.200	8.542	0.099
672.300	23.116	0.099
672.400	43.783	0.099
672.500	32.334	0.099
672.600	29.479	0.099
672.700	37.299	0.099
672.800	26.237	0.099
672.900	20.924	0.099
673.000	26.764	0.099
673.100	41.223	0.099
673.200	29.031	0.099
673.300	25.363	0.099
673.400	53.233	0.099
673.500	25.855	0.099
673.600	33.928	0.099
673.700	33.262	0.099
673.800	27.303	0.099
673.900	23.687	0.099
674.000	33.815	0.099
674.100	31.588	0.099
674.200	38.840	0.099
674.300	40.380	0.099
674.400	20.423	0.099
674.500	32.721	0.099
674.600	28.923	0.099
674.700	7.890	0.099
674.800	44.406	0.099
674.900	34.094	0.099
675.000	31.294	0.099
675.100	23.564	0.099
675.200	34.692	0.099
675.300	16.574	0.099
675.400	31.642	0.099
675.500	36.558	0.099
675.600	26.825	0.099
675.700	31.006	0.099
675.800	8.914	0.099
675.900	28.112	0.099
676.000	40.495	0.099
676.100	21.138	0.099
676.200	15.468	0.099
676.300	28.955	0.099
676.400	30.105	0.099
676.500	39.988	0.099
676.600	40.568	0.099
676.700	27.734	0.099
676.800	36.596	0.099
676.900	38.891	0.099
677.000	47.559	0.099
677.100	29.791	0.099
677.200	22.064	0.099
677.300	33.225	0.099
677.400	29.952	0.099
677.500	30.603	0.099
677.600	30.095	0.099
677.700	26.835	0.099
677.800	22.536	0.099
677.900	27.689	0.099
678.000	19.584	0.099
678.100	32.410	0.099
678.200	28.037	0.099
678.300	27.613	0.099
678.400	26.103	0.099
678.500	31.758	0.099
678.600	31.222	0.099
678.700	31.576	0.099
678.800	36.345	0.099
678.900	40.162	0.099
679.000	36.276	0.099
679.100	27.687	0.099
679.200	27.796	0.099
679.300	42.537	0.099
679.400	22.742	0.099
679.500	40.464	0.099
679.600	36.636	0.099
679.700	37.587	0.099
679.800	23.872	0.099
679.900	22.353	0.099
680.000	28.256	0.099
680.100	36.618	0.099
680.200	21.997	0.099
680.300	43.616	0.099
680.400	33.986	0.099
680.500	14.527	0.099
680.600	35.304	0.099
680.700	18.683	0.099
680.800	26.882	0.099
680.900	28.654	0.099
681.000	27.323	0.099
681.100	37.372	0.099
681.200	15.006	0.099
681.300	32.124	0.099
681.400	19.218	0.099
681.500	16.914	0.099
681.600	27.901	0.099
681.700	34.901	0.099
681.800	25.983	0.099
681.900	20.980	0.099
682.000	31.150	0.099
682.100	35.441	0.099
682.200	36.786	0.099
682.300	10.898	0.099
682.400	23.598	0.099
682.500	38.414	0.099
682.600	12.775	0.099
682.700	27.156	0.099
682.800	32.010	0.099
682.900	20.330	0.099
683.000	46.618	0.099
683.100	26.860	0.099
683.200	21.169	0.099
683.300	19.903	0.099
683.400	28.863	0.099
683.500	22.800	0.099
683.600	26.106	0.099
683.700	29.295	0.099
683.800	21.586	0.099
683.900	21.133	0.099
684.000	35.069	0.099
684.100	33.007	0.099
684.200	41.456	0.099
684.300	34.361	0.099
684.400	21.596	0.099
684.500	38.826	0.099
684.600	24.589	0.099
684.700	24.280	0.099
684.800	40.747	0.099
684.900	39.563	0.099
685.000	32.919	0.099
685.100	24.351	0.099
685.200	38.779	0.099
685.300	20.445	0.099
685.400	19.836	0.099
685.500	12.850	0.099
685.600	20.564	0.099
685.700	27.805	0.099
685.800	47.794	0.099
685.900	40.650	0.099
686.000	11.223	0.099
686.100	39.000	0.099
686.200	30.451	0.099
686.300	19.492	0.099
686.400	14.348	0.099
686.500	20.302	0.099
686.600	29.166	0.099
686.700	23.784	0.099
686.800	49.601	0.099
686.900	31.802	0.099
687.000	24.961	0.099
687.100	33.054	0.099
687.200	18.445	0.099
687.300	28.078	0.099
687.400	43.788	0.099
687.500	24.461	0.099
687.600	34.933	0.099
687.700	20.723	0.099
687.800	28.303	0.099
687.900	30.322	0.099
688.000	20.464	0.099
688.100	34.226	0.099
688.200	41.732	0.099
688.300	43.881	0.099
688.400	38.297	0.099
688.500	23.370	0.099
688.600	29.991	0.099
688.700	27.956	0.099
688.800	34.182	0.099
688.900	12.235	0.099
689.000	34.294	0.099
689.100	33.677	0.099
689.200	24.596	0.099
689.300	29.832	0.099
689.400	14.639	0.099
689.500	25.900	0.099
689.600	14.184	0.099
689.700	42.752	0.099
689.800	20.696	0.099
689.900	45.994	0.099
690.000	37.031	0.099
690.100	12.398	0.099
690.200	21.894	0.099
690.300	34.495	0.099
690.400	27.801	0.099
690.500	36.699	0.099
690.600	24.255	0.099
690.700	37.895	0.099
690.800	28.757	0.099
690.900	33.736	0.099
691.000	15.953	0.099
691.100	24.539	0.099
691.200	18.468	0.099
691.300	19.651	0.099
691.400	25.983	0.099
691.500	26.533	0.099
691.600	28.515	0.099
691.700	25.400	0.099
691.800	6.059	0.099
691.900	13.057	0.099
692.000	17.404	0.099
692.100	10.579	0.099
692.200	0.060	0.099
692.300	4.530	0.099
692.400	7.910	0.099
692.500	3.185	0.099
692.600	5.509	0.099
692.700	5.508	0.099
692.800	3.135	0.099
692.900	-8.674	0.099
693.000	10.171	0.099
693.100	0.551	0.099
693.200	-2.597	0.099
693.300	1.409	0.099
693.400	-1.676	0.099
693.500	-13.111	0.099
693.600	0.243	0.099
693.700	4.056	0.099
693.800	-0.464	0.099
693.900	-3.916	0.099
694.000	-1.010	0.099
694.100	-15.073	0.099
694.200	-6.809	0.099
694.300	-3.312	0.099
694.400	-11.451	0.099
694.500	-8.876	0.099
694.600	-19.706	0.099
694.700	6.323	0.099
694.800	-1.295	0.099
694.900	0.245	0.099
695.000	1.113	0.099
695.100	2.704	0.099
695.200	-7.958	0.099
695.300	-14.039	0.099
695.400	-1.269	0.099
695.500	3.506	0.099
695.600	-11.851	0.099
695.700	4.462	0.099
695.800	-14.191	0.099
695.900	-6.968	0.099
696.000	-4.916	0.099
696.100	-12.934	0.099
696.200	-8.268	0.099
696.300	-7.717	0.099
696.400	-9.693	0.099
696.500	-6.701	0.099
696.600	-6.765	0.099
696.700	4.864	0.099
696.800	-15.038	0.099
696.900	-10.988	0.099
697.000	-5.352	0.099
697.100	-8.051	0.099
697.200	-9.700	0.099
697.300	3.253	0.099
697.400	-13.025	0.099
697.500	3.546	0.099
697.600	2.895	0.099
697.700	1.965	0.099
697.800	-12.556	0.099
697.900	7.016	0.099
698.000	9.493	0.099
698.100	-14.388	0.099
698.200	-11.694	0.099
698.300	-7.487	0.099
698.400	0.463	0.099
698.500	-3.484	0.099
698.600	-2.940	0.099
698.700	-13.366	0.099
698.800	-17.096	0.099
698.900	1.359	0.099
699.000	-10.540	0.099
699.100	-6.655	0.099
699.200	9.353	0.099
699.300	-11.870	0.099
699.400	-4.256	0.099
699.500	-9.081	0.099
699.600	-11.317	0.099
699.700	-3.051	0.099
699.800	-4.291	0.099
699.900	-12.918	0.099
700.000	-4.944	0.099
700.100	-2.075	0.099
700.200	-17.996	0.099
700.300	-11.987	0.099
700.400	8.004	0.099
700.500	-15.089	0.099
700.600	1.190	0.099
700.700	6.583	0.099
700.800	1.283	0.099
700.900	-16.908	0.099
701.000	-8.639	0.099
701.100	-20.880	0.099
701.200	-6.164	0.099
701.300	3.925	0.099
701.400	-13.582	0.099
701.500	-10.281	0.099
701.600	-7.767	0.099
701.700	6.987	0.099
701.800	-9.667	0.099
701.900	-10.867	0.099
702.000	-16.596	0.099
702.100	-4.120	0.099
702.200	6.776	0.099
702.300	-19.745	0.099
702.400	-8.681	0.099
702.500	-8.430	0.099
702.600	-9.570	0.099
702.700	-6.317	0.099
702.800	2.046	0.099
702.900	-17.732	0.099
703.000	-0.640	0.099
703.100	-4.071	0.099
703.200	-16.539	0.099
703.300	-10.623	0.099
703.400	-7.625	0.099
703.500	-7.197	0.099
703.600	-13.586	0.099
703.700	-5.204	0.099
703.800	-3.785	0.099
703.900	-7.582	0.099
704.000	0.393	0.099
704.100	-25.511	0.099
704.200	-4.203	0.099
704.300	-7.101	0.099
704.400	-1.937	0.099
704.500	18.723	0.099
704.600	-12.537	0.099
704.700	-4.138	0.099
704.800	-4.352	0.099
704.900	-8.751	0.099
705.000	-11.273	0.099
705.100	-5.834	0.099
705.200	-22.046	0.099
705.300	4.871	0.099
705.400	-0.883	0.099
705.500	-9.503	0.099
705.600	-20.618	0.099
705.700	1.584	0.099
705.800	-17.556	0.099
705.900	-13.070	0.099
706.000	-6.449	0.099
706.100	-2.171	0.099
706.200	-1.227	0.099
706.300	-11.896	0.099
706.400	-15.913	0.099
706.500	-13.046	0.099
706.600	-2.728	0.099
706.700	-9.864	0.099
706.800	-18.449	0.099
706.900	-11.618	0.099
707.000	2.503	0.099
707.100	-13.358	0.099
707.200	-19.146	0.099
707.300	-7.295	0.099
707.400	-10.839	0.099
707.500	-6.902	0.099
707.600	-8.069	0.099
707.700	-16.987	0.099
707.800	-0.447	0.099
707.900	-15.722	0.099
708.000	-18.819	0.099
708.100	3.788	0.099
708.200	-18.952	0.099
708.300	-14.083	0.099
708.400	3.894	0.099
708.500	-14.114	0.099
708.600	-16.835	0.099
708.700	-4.649	0.099
708.800	-4.281	0.099
708.900	-12.727	0.099
709.000	-13.179	0.099
709.100	-17.626	0.099
709.200	-1.152	0.099
709.300	-6.330	0.099
709.400	-0.800	0.099
709.500	-21.747	0.099
709.600	-16.448	0.099
709.700	4.901	0.099
709.800	-25.548	0.099
709.900	-15.200	0.099
710.000	-6.719	0.099
710.100	-10.847	0.099
710.200	-15.118	0.099
710.300	0.173	0.099
710.400	-1.152	0.099
710.500	-23.946	0.099
710.600	-7.084	0.099
710.700	-14.240	0.099
710.800	-8.513	0.099
710.900	-12.265	0.099
711.000	-26.827	0.099
711.100	-8.324	0.099
711.200	3.659	0.099
711.300	-0.234	0.099
711.400	-18.590	0.099
711.500	-11.327	0.099
711.600	-0.826	0.099
711.700	-17.108	0.099
711.800	-0.327	0.099
711.900	-7.600	0.099
712.000	-19.784	0.099
712.100	2.064	0.099
712.200	-22.254	0.099
712.300	-16.117	0.099
712.400	-8.998	0.099
712.500	-12.752	0.099
712.600	-24.235	0.099
712.700	-7.530	0.099
712.800	-8.739	0.099
712.900	0.037	0.099
713.000	-11.438	0.099
713.100	-10.979	0.099
713.200	-18.369	0.099
713.300	-26.654	0.099
713.400	-16.722	0.099
713.500	-24.134	0.099
713.600	-27.016	0.099
713.700	-0.184	0.099
713.800	-10.951	0.099
713.900	-6.478	0.099
714.000	-5.731	0.099
714.100	-7.462	0.099
714.200	-31.283	0.099
714.300	-9.816	0.099
714.400	-26.405	0.099
714.500	-11.327	0.099
714.600	-17.572	0.099
714.700	-22.253	0.099
714.800	-21.009	0.099
714.900	-10.235	0.099
715.000	-21.384	0.099
715.100	0.514	0.099
715.200	-14.525	0.099
715.300	-12.409	0.099
715.400	-28.705	0.099
715.500	-8.300	0.099
715.600	-0.773	0.099
715.700	-11.536	0.099
715.800	-10.043	0.099
715.900	-13.746	0.099
716.000	-11.831	0.099
716.100	-13.471	0.099
716.200	-22.095	0.099
716.300	-27.590	0.099
716.400	-28.329	0.099
716.500	-1.735	0.099
716.600	-0.286	0.099
716.700	-24.430	0.099
716.800	-5.494	0.099
716.900	-0.330	0.099
717.000	-4.895	0.099
717.100	-24.733	0.099
717.200	-21.519	0.099
717.300	-2.381	0.099
717.400	-19.368	0.099
717.500	-22.385	0.099
717.600	-7.579	0.099
717.700	-12.052	0.099
717.800	-4.927	0.099
717.900	-11.173	0.099
718.000	-16.974	0.099
718.100	-9.079	0.099
718.200	-8.234	0.099
718.300	-11.413	0.099
718.400	-30.899	0.099
718.500	-8.969	0.099
718.600	-14.799	0.099
718.700	-15.274	0.099
718.800	-4.632	0.099
718.900	-11.482	0.099
719.000	-24.778	0.099
719.100	-12.073	0.099
719.200	-19.394	0.099
719.300	-16.869	0.099
719.400	-11.096	0.099
719.500	-12.543	0.099
719.600	-11.112	0.099
719.700	-14.565	0.099
719.800	-17.331	0.099
719.900	-10.583	0.099
720.000	-19.666	0.099
720.100	-33.986	0.099
720.200	3.508	0.099
720.300	-9.763	0.099
720.400	-19.173	0.099
720.500	-14.314	0.099
720.600	-23.953	0.100
720.700	-13.562	0.100
720.800	-15.885	0.100
720.900	-28.594	0.100
721.000	-36.713	0.100
721.100	-7.292	0.100
721.200	-23.204	0.100
721.300	-15.426	0.100
721.400	-9.309	0.100
721.500	-16.018	0.100
721.600	-5.669	0.100
721.700	-27.775	0.100
721.800	-23.581	0.100
721.900	-14.182	0.100
722.000	-19.399	0.100
722.100	1.001	0.100
722.200	-19.954	0.100
722.300	-21.148	0.100
722.400	-25.288	0.100
722.500	-17.352	0.100
722.600	-25.114	0.100
722.700	-15.957	0.100
722.800	-25.281	0.100
722.900	-18.983	0.100
723.000	-4.663	0.100
723.100	-15.627	0.100
723.200	-12.871	0.100
723.300	-3.269	0.100
723.400	-17.754	0.100
723.500	-14.438	0.100
723.600	-20.420	0.100
723.700	-23.141	0.100
723.800	-9.914	0.100
723.900	-6.433	0.100
724.000	-21.218	0.100
724.100	-11.939	0.100
724.200	-24.425	0.100
724.300	-10.715	0.100
724.400	-6.312	0.100
724.500	-19.401	0.100
724.600	-18.438	0.100
724.700	-11.937	0.100
724.800	-25.166	0.100
724.900	-19.812	0.100
725.000	-11.688	0.100
725.100	0.289	0.100
725.200	-7.892	0.100
725.300	-28.511	0.100
725.400	-7.017	0.100
725.500	-26.077	0.100
725.600	-16.328	0.100
725.700	-4.289	0.100
725.800	-15.966	0.100
725.900	-15.704	0.100
726.000	-11.850	0.100
726.100	-18.563	0.100
726.200	-8.826	0.100
726.300	-21.086	0.100
726.400	-12.370	0.100
726.500	-10.831	0.100
726.600	-9.118	0.100
726.700	-17.723	0.100
726.800	-22.143	0.100
726.900	-8.798	0.100
727.000	-19.881	0.100
727.100	3.747	0.100
727.200	-12.238	0.100
727.300	-7.957	0.100
727.400	-22.859	0.100
727.500	-13.365	0.100
727.600	-5.479	0.100
727.700	-18.345	0.100
727.800	-24.544	0.100
727.900	-2.747	0.100
728.000	-24.262	0.100
728.100	-22.850	0.100
728.200	-18.363	0.100
728.300	-10.805	0.100
728.400	-7.924	0.100
728.500	-18.487	0.100
728.600	-15.264	0.100
728.700	-34.510	0.100
728.800	-12.497	0.100
728.900	-24.185	0.100
729.000	-20.209	0.100
729.100	-17.861	0.100
729.200	-17.853	0.100
729.300	-5.834	0.100
729.400	-26.019	0.100
729.500	-21.044	0.100
729.600	-7.243	0.100
729.700	-19.577	0.100
729.800	2.098	0.100
729.900	-19.710	0.100
730.000	-12.687	0.100
730.100	-5.615	0.100
730.200	-5.238	0.100
730.300	-14.076	0.100
730.400	-10.692	0.100
730.500	-14.096	0.100
730.600	-16.858	0.100
730.700	-8.698	0.100
730.800	-14.253	0.100
730.900	-24.684	0.100
731.000	-21.579	0.100
731.100	-5.466	0.100
731.200	-18.823	0.100
731.300	-10.647	0.100
731.400	-14.597	0.100
731.500	-18.499	0.100
731.600	-5.602	0.100
731.700	-12.643	0.100
731.800	-6.883	0.100
731.900	-7.816	0.100
732.000	-38.657	0.100
732.100	0.479	0.100
732.200	-17.796	0.100
732.300	-23.558	0.100
732.400	-19.647	0.100
732.500	-1.920	0.100
732.600	-5.155	0.100
732.700	-25.602	0.100
732.800	-16.853	0.100
732.900	-10.571	0.100
733.000	-23.699	0.100
733.100	-20.783	0.100
733.200	-24.924	0.100
733.300	-23.577	0.100
733.400	-12.016	0.100
733.500	-8.100	0.100
733.600	-17.738	0.100
733.700	-15.793	0.100
733.800	-23.201	0.100
733.900	-10.824	0.100
734.000	-15.709	0.100
734.100	-9.444	0.100
734.200	-25.941	0.100
734.300	-4.121	0.100
734.400	-14.051	0.100
734.500	-20.152	0.100
734.600	-9.127	0.100
734.700	-23.704	0.100
734.800	-0.984	0.100
734.900	-24.096	0.100
735.000	-24.656	0.100
735.100	2.303	0.100
735.200	23.408	0.100
735.300	-17.206	0.100
735.400	-25.373	0.100
735.500	-2.952	0.100
735.600	-24.127	0.100
735.700	-17.005	0.100
735.800	-11.805	0.100
735.900	-20.604	0.100
736.000	-19.328	0.100
736.100	-26.389	0.100
736.200	0.762	0.100
736.300	-12.829	0.100
736.400	-14.221	0.100
736.500	-8.966	0.100
736.600	-14.342	0.100
736.700	-10.539	0.100
736.800	-18.430	0.100
736.900	-11.256	0.100
737.000	-13.608	0.100
737.100	-17.923	0.100
737.200	-24.855	0.100
737.300	-22.346	0.100
737.400	-2.728	0.100
737.500	-23.775	0.100
737.600	-9.585	0.100
737.700	-6.275	0.100
737.800	-14.601	0.100
737.900	-21.573	0.100
738.000	5.015	0.100
738.100	-18.106	0.100
738.200	-6.180	0.100
738.300	-16.487	0.100
738.400	-15.092	0.100
738.500	-3.960	0.100
738.600	-3.093	0.100
738.700	-18.650	0.100
738.800	-1.066	0.100
738.900	-12.228	0.100
739.000	-24.384	0.100
739.100	-9.930	0.100
739.200	-11.768	0.100
739.300	-17.854	0.100
739.400	-14.602	0.100
739.500	-17.478	0.100
739.600	-14.445	0.100
739.700	-14.338	0.100
739.800	-30.303	0.100
739.900	-16.151	0.100
740.000	-6.541	0.100
740.100	-7.447	0.100
740.200	-10.151	0.100
740.300	-4.008	0.100
740.400	-26.553	0.100
740.500	-10.828	0.100
740.600	11.957	0.100
740.700	-21.845	0.100
740.800	-11.544	0.100
740.900	-25.024	0.100
741.000	-10.879	0.100
741.100	-30.984	0.100
741.200	-3.111	0.100
741.300	-7.420	0.100
741.400	-37.186	0.100
741.500	-12.225	0.100
741.600	-14.163	0.100
741.700	-15.801	0.100
741.800	-12.519	0.100
741.900	-7.329	0.100
742.000	-19.307	0.100
742.100	-16.465	0.100
742.200	-15.469	0.100
742.300	-19.036	0.100
742.400	-3.677	0.100
742.500	-14.682	0.100
742.600	-10.785	0.100
742.700	-29.969	0.100
742.800	-27.516	0.100
742.900	-23.016	0.100
743.000	-20.929	0.100
743.100	-19.461	0.100
743.200	-11.136	0.100
743.300	-10.580	0.100
743.400	-13.134	0.100
743.500	-22.878	0.100
743.600	-8.346	0.100
743.700	-15.208	0.100
743.800	-18.901	0.100
743.900	-20.379	0.100
744.000	-22.329	0.100
744.100	-15.072	0.100
744.200	-1.255	0.100
744.300	-28.949	0.100
744.400	-24.331	0.100
744.500	-31.899	0.100
744.600	-9.114	0.100
744.700	-10.697	0.100
744.800	-29.814	0.100
744.900	-9.524	0.100
745.000	-1.883	0.100
745.100	-30.328	0.100
745.200	-15.717	0.100
745.300	-8.062	0.100
745.400	-23.684	0.100
745.500	4.945	0.099
745.600	-7.104	0.100
745.700	-5.623	0.099
745.800	-19.573	0.100
745.900	-16.387	0.100
746.000	-30.031	0.100
746.100	-10.791	0.099
746.200	-17.900	0.099
746.300	-12.235	0.099
746.400	-30.422	0.100
746.500	-16.745	0.099
746.600	-18.210	0.100
746.700	-28.192	0.100
746.800	-10.048	0.100
746.900	-30.363	0.100
747.000	-17.233	0.100
747.100	-5.382	0.100
747.200	-21.205	0.100
747.300	-19.011	0.100
747.400	0.641	0.100
747.500	-13.795	0.100
747.600	-13.795	0.100
747.700	-22.087	0.100
747.800	-13.640	0.100
747.900	-8.670	0.100
748.000	-23.327	0.100
748.100	-2.430	0.100
748.200	-7.229	0.100
748.300	-7.544	0.100
748.400	-12.348	0.100
748.500	-10.484	0.100
748.600	-21.141	0.100
748.700	-6.791	0.100
748.800	-26.400	0.100
748.900	-17.949	0.100
749.000	-2.557	0.100
749.100	-11.720	0.100
749.200	-16.522	0.100
749.300	-13.016	0.100
749.400	-16.336	0.100
749.500	-19.111	0.100
749.600	-2.127	0.100
749.700	-17.742	0.100
749.800	-6.086	0.100
749.900	-3.794	0.100
750.000	-15.461	0.100
750.100	-13.623	0.100
750.200	-20.599	0.100
750.300	-13.713	0.100
750.400	0.137	0.100
750.500	-27.195	0.100
750.600	-12.664	0.100
750.700	-6.937	0.100
750.800	-12.340	0.100
750.900	-23.015	0.100
751.000	-16.132	0.100
751.100	-2.541	0.100
751.200	-47.479	0.100
751.300	-23.554	0.100
751.400	-14.866	0.100
751.500	-4.460	0.100
751.600	-34.156	0.100
751.700	-2.922	0.100
751.800	-4.464	0.100
751.900	-13.390	0.100
752.000	-25.072	0.100
752.100	6.056	0.100
752.200	-8.780	0.100
752.300	-12.762	0.100
752.400	-20.087	0.100
752.500	-22.714	0.100
752.600	-16.246	0.100
752.700	-15.868	0.100
752.800	-9.377	0.100
752.900	-12.341	0.100
753.000	-1.531	0.100
753.100	2.226	0.100
753.200	-15.844	0.100
753.300	-19.521	0.100
753.400	-20.053	0.100
753.500	-12.152	0.100
753.600	-17.065	0.100
753.700	-22.955	0.100
753.800	-17.033	0.100
753.900	-18.828	0.100
754.000	-7.298	0.100
754.100	-9.604	0.100
754.200	-18.138	0.100
754.300	-14.829	0.100
754.400	-8.324	0.100
754.500	-15.257	0.100
754.600	-7.929	0.100
754.700	-30.040	0.100
754.800	-15.959	0.100
754.900	-25.325	0.100
755.000	-12.908	0.100
755.100	-3.341	0.100
755.200	-12.195	0.100
755.300	-10.734	0.100
755.400	-19.189	0.100
755.500	-8.794	0.100
755.600	-24.639	0.100
755.700	-0.701	0.100
755.800	-17.658	0.100
755.900	-29.242	0.100
756.000	-19.722	0.100
756.100	-7.538	0.100
756.200	-11.652	0.100
756.300	-3.800	0.100
756.400	3.245	0.100
756.500	-24.408	0.100
756.600	-20.030	0.100
756.700	-14.160	0.099
756.800	-13.656	0.100
756.900	-13.031	0.100
757.000	-7.096	0.100
757.100	-14.045	0.100
757.200	-19.553	0.100
757.300	-5.147	0.100
757.400	-25.696	0.100
757.500	-24.242	0.100
757.600	-3.006	0.100
757.700	-10.138	0.100
757.800	-19.638	0.100
757.900	-10.100	0.100
758.000	-23.273	0.100
758.100	-11.798	0.099
758.200	-22.119	0.100
758.300	-20.839	0.100
758.400	-13.585	0.100
758.500	-17.486	0.100
758.600	-13.633	0.100
758.700	-6.770	0.100
758.800	-16.518	0.100
758.900	-12.847	0.100
759.000	-31.568	0.100
759.100	-10.574	0.100
759.200	-21.377	0.099
759.300	-8.377	0.100
759.400	-0.790	0.100
759.500	-8.643	0.100
759.600	-21.183	0.100
759.700	-12.624	0.100
759.800	-11.764	0.100
759.900	-6.402	0.100
760.000	-34.225	0.100
760.100	-17.849	0.100
760.200	-14.322	0.100
760.300	-5.769	0.100
760.400	-3.864	0.100
760.500	-16.560	0.100
760.600	-23.471	0.100
760.700	-14.220	0.100
760.800	-11.883	0.100
760.900	-15.071	0.100
761.000	0.426	0.100
761.100	-26.811	0.100
761.200	-4.246	0.100
761.300	-11.250	0.100
761.400	-23.773	0.100
761.500	5.751	0.100
761.600	-22.353	0.100
761.700	-30.003	0.100
761.800	-14.433	0.100
761.900	-18.289	0.100
762.000	-5.939	0.100
762.100	-29.244	0.100
762.200	5.469	0.100
762.300	-1.791	0.100
762.400	-17.896	0.100
762.500	-16.949	0.100
762.600	-26.636	0.100
762.700	-14.419	0.100
762.800	-16.040	0.100
762.900	2.856	0.100
763.000	-10.847	0.100
763.100	-17.139	0.100
763.200	-11.381	0.100
763.300	-17.335	0.100
763.400	-19.505	0.100
763.500	-22.314	0.100
763.600	-8.234	0.100
763.700	-27.618	0.100
763.800	-17.793	0.099
763.900	-16.286	0.100
764.000	3.026	0.100
764.100	-6.820	0.100
764.200	-20.720	0.100
764.300	-16.206	0.100
764.400	-14.340	0.100
764.500	-16.805	0.099
764.600	-18.749	0.100
764.700	-8.496	0.100
764.800	-8.947	0.100
764.900	-16.640	0.100
765.000	-17.313	0.100
765.100	-21.168	0.100
765.200	-13.115	0.100
765.300	-27.926	0.100
765.400	-20.248	0.100
765.500	-31.229	0.100
765.600	-12.919	0.100
765.700	-19.525	0.100
765.800	-11.189	0.100
765.900	-12.570	0.100
766.000	-23.313	0.100
766.100	-11.295	0.100
766.200	2.376	0.100
766.300	-14.651	0.100
766.400	-31.812	0.100
766.500	-21.295	0.100
766.600	-28.057	0.100
766.700	-11.573	0.100
766.800	-10.999	0.100
766.900	-17.278	0.100
767.000	-17.082	0.100
767.100	-8.092	0.100
767.200	-21.233	0.099
767.300	-21.495	0.100
767.400	-21.006	0.100
767.500	-8.553	0.100
767.600	-30.666	0.100
767.700	-11.392	0.099
767.800	-12.388	0.100
767.900	-18.313	0.100
768.000	-17.642	0.100
768.100	-13.219	0.100
768.200	-23.809	0.100
768.300	-18.422	0.100
768.400	2.719	0.099
768.500	-27.846	0.099
768.600	-7.307	0.100
768.700	-15.482	0.100
768.800	-11.976	0.100
768.900	-6.576	0.100
769.000	-35.116	0.100
769.100	-17.407	0.100
769.200	-28.484	0.100
769.300	-1.421	0.100
769.400	-41.695	0.100
769.500	-5.698	0.100
769.600	-19.948	0.100
769.700	-9.170	0.099
769.800	-8.264	0.099
769.900	-20.434	0.099
770.000	-13.781	0.100
770.100	-13.555	0.099
770.200	-9.177	0.100
770.300	-21.308	0.100
770.400	-8.198	0.100
770.500	-21.842	0.100
770.600	0.879	0.100
770.700	-24.560	0.100
770.800	-25.638	0.100
770.900	2.086	0.100
771.000	-4.263	0.099
771.100	-16.562	0.100
771.200	-10.078	0.100
771.300	-10.938	0.099
771.400	-15.417	0.100
771.500	-14.258	0.099
771.600	-10.564	0.100
771.700	-18.633	0.100
771.800	-17.791	0.100
771.900	-21.181	0.100
772.000	-18.907	0.100
772.100	-19.227	0.099
772.200	-14.836	0.100
772.300	-15.811	0.100
772.400	-14.791	0.099
772.500	-9.409	0.100
772.600	-16.337	0.100
772.700	-26.607	0.100
772.800	-11.990	0.100
772.900	-10.020	0.100
773.000	-3.757	0.100
773.100	-11.446	0.100
773.200	-21.627	0.100
773.300	-19.238	0.100
773.400	-14.017	0.100
773.500	-6.206	0.100
773.600	-14.913	0.100
773.700	-13.803	0.100
773.800	-29.596	0.100
773.900	-26.013	0.100
774.000	-13.675	0.100
774.100	-8.350	0.100
774.200	-5.730	0.100
774.300	-2.278	0.100
774.400	-16.191	0.100
774.500	-12.744	0.100
774.600	-17.880	0.100
774.700	-6.706	0.100
774.800	-23.114	0.100
774.900	-10.439	0.100
775.000	-37.848	0.100
775.100	-8.938	0.100
775.200	-15.719	0.100
775.300	-13.379	0.100
775.400	-21.627	0.100
775.500	-1.357	0.100
775.600	-14.709	0.099
775.700	-10.574	0.100
775.800	-15.868	0.100
775.900	-10.967	0.100
776.000	-17.250	0.100
776.100	12.331	0.100
776.200	-6.677	0.100
776.300	-29.913	0.100
776.400	-9.345	0.100
776.500	-16.097	0.100
776.600	-4.009	0.100
776.700	-3.185	0.100
776.800	-28.389	0.099
776.900	-17.721	0.100
777.000	-28.836	0.100
777.100	-11.990	0.100
777.200	-13.527	0.100
777.300	-11.129	0.100
777.400	-10.393	0.100
777.500	-5.183	0.099
777.600	-6.993	0.100
777.700	-22.715	0.100
777.800	-18.636	0.099
777.900	-5.235	0.100
778.000	-12.191	0.099
778.100	-5.006	0.099
778.200	-27.941	0.100
778.300	-15.706	0.100
778.400	-14.473	0.100
778.500	0.582	0.100
778.600	-6.534	0.100
778.700	-14.077	0.100
778.800	-22.458	0.100
778.900	-13.836	0.099
779.000	-4.527	0.100
779.100	-22.215	0.100
779.200	-19.829	0.100
779.300	-14.270	0.100
779.400	-15.677	0.100
779.500	-14.923	0.100
779.600	-7.510	0.100
779.700	-23.545	0.100
779.800	-37.384	0.100
779.900	-3.109	0.100
780.000	-5.889	0.100
780.100	-14.375	0.100
780.200	-12.184	0.100
780.300	-8.890	0.100
780.400	-20.492	0.100
780.500	-6.138	0.100
780.600	-27.254	0.100
780.700	-11.120	0.100
780.800	-20.536	0.100
780.900	-23.716	0.100
781.000	-0.647	0.100
781.100	-4.180	0.100
781.200	3.126	0.100
781.300	-12.767	0.099
781.400	-12.122	0.100
781.500	-5.622	0.100
781.600	-6.960	0.100
781.700	0.705	0.100
781.800	-0.873	0.100
781.900	-8.461	0.100
782.000	4.708	0.100
782.100	-15.773	0.100
782.200	15.210	0.100
782.300	8.738	0.100
782.400	10.882	0.100
782.500	1.882	0.099
782.600	-20.947	0.100
782.700	17.725	0.100
782.800	7.257	0.100
782.900	17.579	0.099
783.000	8.426	0.099
783.100	6.815	0.100
783.200	9.426	0.100
783.300	4.761	0.100
783.400	3.243	0.100
783.500	1.042	0.100
783.600	-0.325	0.100
783.700	18.620	0.100
783.800	-1.250	0.100
783.900	17.879	0.100
784.000	5.241	0.100
784.100	15.248	0.100
784.200	-6.694	0.100
784.300	10.644	0.100
784.400	8.922	0.100
784.500	13.931	0.100
784.600	2.860	0.100
784.700	6.490	0.099
784.800	4.452	0.100
784.900	4.687	0.100
785.000	1.068	0.100
785.100	5.192	0.100
785.200	-22.688	0.099
785.300	6.298	0.100
785.400	8.899	0.100
785.500	7.387	0.099
785.600	14.142	0.100
785.700	2.893	0.100
785.800	-9.155	0.100
785.900	-0.362	0.100
786.000	1.926	0.100
786.100	7.007	0.100
786.200	-14.041	0.100
786.300	7.232	0.100
786.400	-16.764	0.100
786.500	19.101	0.100
786.600	5.474	0.099
786.700	-2.359	0.100
786.800	12.608	0.099
786.900	12.815	0.100
787.000	-1.925	0.100
787.100	9.985	0.100
787.200	1.254	0.100
787.300	-8.928	0.100
787.400	-11.828	0.100
787.500	3.931	0.100
787.600	5.482	0.100
787.700	10.778	0.100
787.800	-9.426	0.100
787.900	18.530	0.100
788.000	8.793	0.099
788.100	-15.331	0.100
788.200	0.058	0.100
788.300	4.437	0.100
788.400	8.590	0.100
788.500	3.337	0.100
788.600	17.449	0.100
788.700	4.510	0.100
788.800	2.132	0.100
788.900	-4.676	0.100
789.000	12.428	0.100
789.100	8.181	0.099
789.200	10.879	0.100
789.300	15.698	0.100
789.400	-0.967	0.100
789.500	-5.406	0.100
789.600	10.240	0.100
789.700	-0.226	0.100
789.800	-7.576	0.099
789.900	0.039	0.100
790.000	9.949	0.099
790.100	27.075	0.100
790.200	6.287	0.100
790.300	-12.019	0.100
790.400	11.373	0.100
790.500	9.517	0.100
790.600	10.701	0.100
790.700	28.588	0.100
790.800	15.838	0.100
790.900	7.133	0.100
791.000	19.928	0.099
791.100	6.663	0.099
791.200	6.420	0.099
791.300	28.816	0.100
791.400	20.688	0.099
791.500	24.570	0.099
791.600	7.823	0.100
791.700	0.180	0.100
791.800	16.076	0.100
791.900	25.254	0.100
792.000	19.172	0.099
792.100	10.036	0.100
792.200	31.689	0.100
792.300	16.181	0.100
792.400	20.613	0.100
792.500	23.986	0.100
792.600	13.115	0.099
792.700	23.800	0.100
792.800	24.777	0.099
792.900	17.328	0.099
793.000	8.802	0.099
793.100	23.215	0.099
793.200	16.256	0.100
793.300	6.141	0.099
793.400	10.607	0.099
793.500	31.914	0.099
793.600	22.214	0.099
793.700	26.094	0.100
793.800	1.484	0.100
793.900	14.084	0.099
794.000	33.632	0.100
794.100	31.631	0.100
794.200	23.992	0.100
794.300	28.714	0.100
794.400	11.474	0.100
794.500	21.455	0.099
794.600	27.950	0.100
794.700	33.473	0.099
794.800	28.769	0.100
794.900	32.171	0.099
795.000	20.182	0.100
795.100	33.174	0.100
795.200	17.568	0.099
795.300	33.433	0.100
795.400	21.447	0.100
795.500	28.614	0.100
795.600	40.047	0.100
795.700	32.325	0.100
795.800	22.304	0.099
795.900	38.010	0.100
796.000	29.579	0.100
796.100	27.833	0.100
796.200	26.789	0.100
796.300	45.926	0.100
796.400	36.313	0.100
796.500	30.389	0.100
796.600	30.171	0.100
796.700	29.354	0.099
796.800	43.797	0.100
796.900	46.857	0.100
797.000	39.016	0.099
797.100	29.122	0.100
797.200	23.589	0.099
797.300	36.270	0.100
797.400	32.207	0.100
797.500	40.626	0.099
797.600	31.973	0.100
797.700	55.439	0.099
797.800	15.518	0.099
797.900	35.422	0.100
798.000	28.436	0.100
798.100	33.233	0.100
798.200	35.593	0.099
798.300	37.060	0.100
798.400	32.299	0.100
798.500	48.826	0.099
798.600	47.866	0.100
798.700	32.101	0.099
798.800	43.350	0.100
798.900	37.310	0.099
799.000	26.585	0.100
799.100	42.238	0.100
799.200	29.179	0.100
799.300	32.440	0.100
799.400	32.345	0.100
799.500	28.510	0.099
799.600	37.470	0.100
799.700	24.675	0.100
799.800	43.996	0.100
799.900	28.361	0.099
800.000	38.584	0.100
