time /s	I /nA	E /V
0.100	6.429	0.100
0.200	-20.423	0.100
0.300	-19.936	0.100
0.400	-6.212	0.100
0.500	10.273	0.100
0.600	-34.653	0.100
0.700	-12.750	0.100
0.800	-17.019	0.100
0.900	-15.318	0.100
1.000	-21.250	0.100
1.100	-7.413	0.100
1.200	-17.709	0.100
1.300	-4.365	0.100
1.400	-15.803	0.100
1.500	-10.894	0.099
1.600	2.939	0.100
1.700	-14.176	0.100
1.800	-7.908	0.100
1.900	-3.879	0.100
2.000	-23.233	0.100
2.100	3.961	0.100
2.200	-12.058	0.100
2.300	-1.900	0.100
2.400	-17.383	0.100
2.500	-11.290	0.100
2.600	-11.298	0.100
2.700	-13.000	0.100
2.800	-10.893	0.100
2.900	-23.109	0.100
3.000	-7.254	0.100
3.100	-17.606	0.100
3.200	-2.299	0.100
3.300	-8.367	0.100
3.400	-4.440	0.100
3.500	-22.572	0.100
3.600	-1.448	0.100
3.700	-23.612	0.100
3.800	-11.426	0.100
3.900	-27.854	0.100
4.000	-7.091	0.100
4.100	-18.056	0.100
4.200	2.692	0.100
4.300	-27.434	0.100
4.400	-18.827	0.100
4.500	-20.564	0.100
4.600	-4.320	0.100
4.700	-18.683	0.100
4.800	-12.941	0.100
4.900	4.219	0.100
5.000	-2.364	0.100
5.100	-17.527	0.100
5.200	-7.571	0.100
5.300	-19.062	0.100
5.400	-0.235	0.100
5.500	-6.017	0.100
5.600	-20.749	0.100
5.700	-13.865	0.100
5.800	-6.448	0.100
5.900	-16.876	0.100
6.000	-10.090	0.100
6.100	-13.031	0.100
6.200	-17.734	0.100
6.300	-10.740	0.100
6.400	-20.688	0.100
6.500	-28.536	0.100
6.600	-24.286	0.100
6.700	-11.933	0.100
6.800	-13.808	0.100
6.900	-10.051	0.100
7.000	-11.221	0.100
7.100	-6.134	0.100
7.200	-14.538	0.100
7.300	-18.630	0.100
7.400	-12.550	0.100
7.500	-13.143	0.100
7.600	-7.117	0.100
7.700	-3.489	0.100
7.800	-9.215	0.100
7.900	-33.557	0.100
8.000	-21.478	0.100
8.100	-13.339	0.100
8.200	-4.903	0.100
8.300	-18.279	0.100
8.400	15.142	0.100
8.500	-6.894	0.100
8.600	-12.234	0.100
8.700	-4.900	0.100
8.800	4.156	0.100
8.900	3.359	0.100
9.000	-31.566	0.100
9.100	-12.328	0.100
9.200	-11.555	0.100
9.300	-17.029	0.100
9.400	0.555	0.100
9.500	2.604	0.100
9.600	6.003	0.100
9.700	-3.193	0.099
9.800	-5.477	0.100
9.900	-22.114	0.100
10.000	-1.646	0.100
10.100	-0.263	0.100
10.200	-1.994	0.100
10.300	-4.390	0.100
10.400	0.051	0.100
10.500	-2.671	0.100
10.600	-21.305	0.100
10.700	-14.699	0.100
10.800	-8.365	0.100
10.900	-18.811	0.100
11.000	-3.744	0.100
11.100	-9.158	0.100
11.200	-7.331	0.100
11.300	-10.711	0.100
11.400	-10.095	0.100
11.500	8.747	0.100
11.600	-21.919	0.100
11.700	-16.571	0.100
11.800	-15.942	0.100
11.900	-4.389	0.100
12.000	-17.551	0.100
12.100	-2.505	0.100
12.200	-0.677	0.100
12.300	-8.794	0.100
12.400	-11.352	0.100
12.500	-7.299	0.100
12.600	-8.505	0.100
12.700	-25.091	0.100
12.800	-13.464	0.100
12.900	11.992	0.100
13.000	-10.801	0.100
13.100	-11.443	0.100
13.200	-10.872	0.100
13.300	-17.839	0.100
13.400	-24.288	0.100
13.500	-3.797	0.100
13.600	-3.263	0.100
13.700	-9.682	0.100
13.800	-16.587	0.100
13.900	-7.418	0.100
14.000	-26.235	0.100
14.100	-19.835	0.100
14.200	-21.363	0.100
14.300	-12.287	0.100
14.400	0.955	0.100
14.500	6.722	0.100
14.600	-14.147	0.100
14.700	-2.285	0.100
14.800	-24.036	0.100
14.900	8.472	0.100
15.000	-19.928	0.100
15.100	-4.894	0.100
15.200	-17.173	0.100
15.300	-12.261	0.100
15.400	-11.952	0.100
15.500	-6.365	0.100
15.600	-13.294	0.100
15.700	-32.359	0.100
15.800	0.278	0.100
15.900	4.495	0.100
16.000	-6.814	0.100
16.100	-11.882	0.100
16.200	-14.318	0.100
16.300	-17.889	0.100
16.400	-6.303	0.100
16.500	4.091	0.100
16.600	-20.575	0.100
16.700	-8.824	0.100
16.800	-31.147	0.100
16.900	-10.824	0.100
17.000	-6.822	0.100
17.100	-5.593	0.100
17.200	-3.783	0.100
17.300	-5.660	0.100
17.400	-25.418	0.100
17.500	-11.715	0.100
17.600	-10.325	0.100
17.700	-11.742	0.100
17.800	-9.612	0.100
17.900	0.872	0.100
18.000	-11.481	0.100
18.100	-22.430	0.100
18.200	-25.681	0.100
18.300	-7.573	0.100
18.400	-5.282	0.100
18.500	-0.997	0.100
18.600	-5.407	0.100
18.700	1.979	0.100
18.800	-12.117	0.100
18.900	-4.836	0.100
19.000	-10.483	0.100
19.100	-9.438	0.100
19.200	16.694	0.100
19.300	6.999	0.100
19.400	-16.529	0.100
19.500	-22.015	0.100
19.600	-12.405	0.100
19.700	-23.089	0.100
19.800	5.917	0.100
19.900	-11.705	0.100
20.000	-5.316	0.100
20.100	-6.835	0.100
20.200	-0.846	0.100
20.300	4.680	0.100
20.400	-21.839	0.100
20.500	-26.498	0.100
20.600	-7.455	0.100
20.700	-8.543	0.100
20.800	-20.479	0.100
20.900	-7.652	0.100
21.000	-11.220	0.100
21.100	-12.103	0.100
21.200	-11.753	0.100
21.300	-7.234	0.100
21.400	-10.909	0.100
21.500	-6.743	0.100
21.600	2.641	0.100
21.700	-11.380	0.100
21.800	-19.775	0.100
21.900	-2.743	0.100
22.000	4.074	0.100
22.100	1.843	0.100
22.200	-4.640	0.100
22.300	-19.717	0.100
22.400	-21.444	0.100
22.500	-6.344	0.100
22.600	-15.690	0.100
22.700	-17.442	0.099
22.800	-5.779	0.100
22.900	-9.369	0.100
23.000	-4.904	0.100
23.100	-4.129	0.100
23.200	-12.831	0.100
23.300	-2.909	0.100
23.400	-3.612	0.100
23.500	-6.268	0.100
23.600	-12.888	0.100
23.700	-16.138	0.100
23.800	-6.484	0.100
23.900	-3.768	0.100
24.000	-6.902	0.100
24.100	-10.695	0.100
24.200	-16.375	0.100
24.300	-14.671	0.100
24.400	-12.660	0.100
24.500	-7.283	0.100
24.600	-8.129	0.099
24.700	-17.753	0.100
24.800	-0.396	0.100
24.900	1.661	0.100
25.000	5.478	0.100
25.100	-1.903	0.100
25.200	-20.087	0.100
25.300	-2.536	0.100
25.400	-5.947	0.100
25.500	-0.890	0.100
25.600	-9.438	0.100
25.700	-11.163	0.100
25.800	-29.030	0.100
25.900	-3.664	0.100
26.000	3.362	0.100
26.100	2.602	0.100
26.200	-8.182	0.100
26.300	-6.905	0.100
26.400	-11.651	0.100
26.500	-2.969	0.100
26.600	-26.634	0.100
26.700	-9.898	0.100
26.800	-6.206	0.100
26.900	-25.262	0.100
27.000	-4.814	0.100
27.100	-40.368	0.100
27.200	-0.192	0.100
27.300	-11.170	0.100
27.400	-8.517	0.100
27.500	-7.362	0.100
27.600	-15.349	0.100
27.700	-0.169	0.100
27.800	-6.762	0.100
27.900	-16.240	0.100
28.000	10.727	0.100
28.100	-13.580	0.100
28.200	4.608	0.099
28.300	-11.756	0.100
28.400	-18.706	0.100
28.500	-13.722	0.100
28.600	3.568	0.100
28.700	-8.127	0.100
28.800	2.666	0.100
28.900	-23.495	0.099
29.000	-2.360	0.100
29.100	-10.877	0.100
29.200	-27.386	0.100
29.300	-2.945	0.099
29.400	-5.335	0.100
29.500	-2.337	0.100
29.600	-10.771	0.100
29.700	-4.989	0.100
29.800	-10.862	0.100
29.900	-14.174	0.100
30.000	-1.681	0.099
30.100	-2.323	0.100
30.200	-18.490	0.100
30.300	-15.384	0.100
30.400	-8.171	0.100
30.500	-7.839	0.099
30.600	-6.752	0.100
30.700	-0.549	0.100
30.800	-19.572	0.100
30.900	-16.209	0.100
31.000	-0.577	0.099
31.100	1.926	0.100
31.200	-9.493	0.099
31.300	-0.637	0.100
31.400	-6.817	0.100
31.500	30.592	0.100
31.600	3.722	0.100
31.700	17.239	0.099
31.800	30.688	0.100
31.900	15.939	0.100
32.000	16.744	0.100
32.100	4.800	0.100
32.200	-3.364	0.100
32.300	-13.651	0.100
32.400	10.306	0.099
32.500	15.482	0.100
32.600	13.303	0.100
32.700	14.106	0.100
32.800	1.454	0.100
32.900	8.759	0.100
33.000	-0.532	0.100
33.100	15.051	0.100
33.200	9.279	0.100
33.300	2.115	0.100
33.400	26.601	0.100
33.500	18.507	0.100
33.600	4.601	0.100
33.700	-2.440	0.100
33.800	8.582	0.100
33.900	3.792	0.100
34.000	10.315	0.100
34.100	3.053	0.100
34.200	8.535	0.100
34.300	32.054	0.100
34.400	9.016	0.100
34.500	3.399	0.100
34.600	1.834	0.100
34.700	9.334	0.100
34.800	12.039	0.100
34.900	7.050	0.100
35.000	24.424	0.100
35.100	-1.836	0.100
35.200	6.122	0.100
35.300	5.467	0.100
35.400	3.683	0.100
35.500	5.415	0.100
35.600	33.018	0.100
35.700	10.670	0.099
35.800	11.702	0.100
35.900	2.383	0.100
36.000	5.440	0.100
36.100	19.905	0.100
36.200	6.040	0.100
36.300	24.469	0.100
36.400	24.559	0.100
36.500	38.242	0.100
36.600	7.335	0.100
36.700	10.535	0.100
36.800	18.375	0.100
36.900	16.716	0.099
37.000	18.370	0.100
37.100	4.821	0.100
37.200	22.908	0.100
37.300	6.274	0.100
37.400	18.512	0.100
37.500	44.992	0.100
37.600	25.129	0.100
37.700	10.471	0.100
37.800	26.115	0.100
37.900	25.556	0.100
38.000	10.533	0.100
38.100	28.646	0.100
38.200	37.565	0.100
38.300	16.579	0.099
38.400	39.301	0.100
38.500	39.209	0.100
38.600	25.684	0.100
38.700	26.161	0.100
38.800	17.725	0.100
38.900	13.758	0.099
39.000	39.564	0.100
39.100	27.949	0.099
39.200	45.253	0.100
39.300	24.200	0.100
39.400	42.898	0.100
39.500	38.451	0.100
39.600	34.560	0.099
39.700	25.006	0.100
39.800	46.801	0.100
39.900	34.066	0.099
40.000	35.774	0.100
40.100	12.656	0.099
40.200	40.892	0.099
40.300	36.766	0.100
40.400	27.871	0.100
40.500	28.673	0.099
40.600	26.514	0.099
40.700	33.840	0.100
40.800	41.309	0.099
40.900	48.833	0.100
41.000	38.690	0.100
41.100	34.238	0.100
41.200	27.057	0.100
41.300	35.845	0.100
41.400	45.113	0.100
41.500	38.851	0.100
41.600	26.587	0.100
41.700	35.443	0.100
41.800	37.864	0.100
41.900	40.016	0.100
42.000	29.542	0.100
42.100	38.081	0.099
42.200	32.453	0.100
42.300	36.896	0.100
42.400	34.219	0.099
42.500	38.168	0.100
42.600	34.489	0.100
42.700	29.885	0.099
42.800	38.313	0.100
42.900	38.993	0.100
43.000	40.888	0.100
43.100	29.220	0.100
43.200	36.288	0.100
43.300	49.828	0.100
43.400	40.214	0.100
43.500	29.198	0.100
43.600	31.038	0.100
43.700	21.323	0.100
43.800	38.914	0.100
43.900	56.091	0.100
44.000	48.365	0.100
44.100	43.105	0.100
44.200	25.636	0.100
44.300	22.977	0.100
44.400	35.729	0.100
44.500	33.781	0.100
44.600	31.361	0.100
44.700	35.494	0.100
44.800	49.428	0.100
44.900	32.316	0.100
45.000	30.497	0.100
45.100	29.795	0.100
45.200	45.008	0.100
45.300	29.688	0.100
45.400	23.466	0.100
45.500	54.258	0.100
45.600	37.418	0.100
45.700	33.134	0.100
45.800	27.926	0.100
45.900	37.592	0.100
46.000	19.491	0.100
46.100	31.119	0.100
46.200	55.266	0.100
46.300	16.819	0.100
46.400	35.825	0.100
46.500	24.541	0.100
46.600	18.769	0.100
46.700	26.466	0.100
46.800	25.330	0.100
46.900	48.001	0.100
47.000	22.909	0.100
47.100	35.345	0.100
47.200	24.817	0.100
47.300	34.192	0.100
47.400	27.426	0.100
47.500	20.556	0.100
47.600	31.450	0.100
47.700	29.462	0.100
47.800	28.996	0.100
47.900	34.686	0.100
48.000	27.695	0.100
48.100	28.764	0.100
48.200	21.538	0.100
48.300	34.255	0.100
48.400	-2.409	0.100
48.500	56.892	0.100
48.600	25.384	0.100
48.700	27.405	0.100
48.800	14.048	0.100
48.900	12.127	0.100
49.000	21.118	0.100
49.100	40.209	0.100
49.200	51.027	0.100
49.300	24.793	0.100
49.400	23.168	0.100
49.500	21.715	0.100
49.600	30.167	0.100
49.700	-5.166	0.100
49.800	36.590	0.100
49.900	26.040	0.100
50.000	22.047	0.100
50.100	16.085	0.099
50.200	24.747	0.100
50.300	14.097	0.100
50.400	36.081	0.100
50.500	32.576	0.100
50.600	22.212	0.100
50.700	22.900	0.100
50.800	18.850	0.100
50.900	36.900	0.100
51.000	34.680	0.100
51.100	31.605	0.100
51.200	25.439	0.100
51.300	10.237	0.100
51.400	31.511	0.100
51.500	23.226	0.100
51.600	23.820	0.099
51.700	15.019	0.100
51.800	27.265	0.100
51.900	20.730	0.100
52.000	27.682	0.100
52.100	18.377	0.100
52.200	-1.853	0.100
52.300	32.697	0.100
52.400	29.889	0.100
52.500	15.560	0.099
52.600	23.920	0.100
52.700	1.616	0.100
52.800	14.796	0.100
52.900	-1.914	0.099
53.000	36.529	0.100
53.100	30.202	0.100
53.200	11.369	0.100
53.300	21.821	0.100
53.400	35.501	0.099
53.500	19.048	0.100
53.600	1.237	0.100
53.700	31.056	0.100
53.800	22.274	0.100
53.900	26.869	0.100
54.000	25.641	0.100
54.100	17.866	0.100
54.200	5.503	0.100
54.300	12.852	0.100
54.400	27.439	0.100
54.500	34.666	0.100
54.600	13.316	0.100
54.700	25.422	0.100
54.800	18.096	0.100
54.900	23.672	0.100
55.000	26.365	0.100
55.100	-3.148	0.100
55.200	29.977	0.099
55.300	16.659	0.100
55.400	32.038	0.100
55.500	20.030	0.100
55.600	18.788	0.099
55.700	25.710	0.100
55.800	17.689	0.100
55.900	16.333	0.100
56.000	14.104	0.100
56.100	5.776	0.100
56.200	22.520	0.099
56.300	11.701	0.099
56.400	26.283	0.100
56.500	22.048	0.100
56.600	31.129	0.100
56.700	36.697	0.100
56.800	3.249	0.100
56.900	10.805	0.100
57.000	15.495	0.100
57.100	17.154	0.099
57.200	23.686	0.100
57.300	28.055	0.100
57.400	19.984	0.100
57.500	32.335	0.100
57.600	11.807	0.100
57.700	1.560	0.100
57.800	-3.797	0.100
57.900	23.161	0.100
58.000	40.245	0.099
58.100	33.835	0.100
58.200	18.250	0.100
58.300	28.325	0.100
58.400	10.401	0.100
58.500	8.486	0.099
58.600	35.477	0.100
58.700	14.947	0.100
58.800	21.415	0.100
58.900	5.684	0.100
59.000	10.916	0.099
59.100	-1.293	0.100
59.200	31.134	0.100
59.300	27.787	0.100
59.400	15.338	0.100
59.500	10.899	0.100
59.600	20.606	0.099
59.700	16.906	0.100
59.800	16.173	0.100
59.900	-2.809	0.100
60.000	29.494	0.100
60.100	7.660	0.100
60.200	2.123	0.100
60.300	14.027	0.100
60.400	21.033	0.100
60.500	18.781	0.100
60.600	29.481	0.099
60.700	9.298	0.100
60.800	6.616	0.100
60.900	24.215	0.100
61.000	14.288	0.100
61.100	25.609	0.100
61.200	20.338	0.100
61.300	26.746	0.100
61.400	7.190	0.100
61.500	16.018	0.100
61.600	22.962	0.100
61.700	19.234	0.100
61.800	8.350	0.100
61.900	10.532	0.100
62.000	14.918	0.100
62.100	8.486	0.100
62.200	6.505	0.100
62.300	11.494	0.100
62.400	8.115	0.100
62.500	28.950	0.100
62.600	17.479	0.100
62.700	13.109	0.100
62.800	14.554	0.099
62.900	2.680	0.100
63.000	4.250	0.099
63.100	24.227	0.100
63.200	21.885	0.100
63.300	13.875	0.100
63.400	4.479	0.100
63.500	12.351	0.100
63.600	31.280	0.100
63.700	21.568	0.100
63.800	26.659	0.100
63.900	13.521	0.100
64.000	15.456	0.100
64.100	22.600	0.100
64.200	15.063	0.100
64.300	19.399	0.100
64.400	20.917	0.100
64.500	13.186	0.100
64.600	11.824	0.100
64.700	25.091	0.100
64.800	6.495	0.099
64.900	21.406	0.100
65.000	32.401	0.100
65.100	-3.722	0.100
65.200	14.333	0.100
65.300	2.063	0.100
65.400	11.180	0.100
65.500	28.095	0.100
65.600	30.296	0.100
65.700	14.703	0.099
65.800	16.231	0.100
65.900	-7.533	0.099
66.000	18.577	0.100
66.100	21.659	0.100
66.200	8.398	0.100
66.300	34.678	0.099
66.400	9.573	0.100
66.500	29.544	0.100
66.600	24.141	0.100
66.700	12.749	0.099
66.800	24.751	0.100
66.900	6.676	0.100
67.000	15.125	0.100
67.100	21.611	0.100
67.200	23.095	0.100
67.300	5.837	0.100
67.400	17.367	0.100
67.500	15.041	0.100
67.600	22.486	0.100
67.700	17.164	0.100
67.800	13.639	0.100
67.900	25.955	0.100
68.000	-12.665	0.099
68.100	12.599	0.100
68.200	35.924	0.100
68.300	29.063	0.099
68.400	4.397	0.100
68.500	17.997	0.100
68.600	34.803	0.100
68.700	20.184	0.099
68.800	26.217	0.100
68.900	31.358	0.100
69.000	12.245	0.100
69.100	15.271	0.100
69.200	-0.162	0.100
69.300	31.584	0.099
69.400	22.239	0.100
69.500	17.038	0.099
69.600	15.861	0.099
69.700	14.327	0.100
69.800	13.796	0.100
69.900	24.460	0.100
70.000	19.711	0.100
70.100	4.354	0.099
70.200	28.792	0.099
70.300	25.245	0.100
70.400	25.768	0.099
70.500	15.991	0.100
70.600	25.061	0.100
70.700	0.855	0.099
70.800	24.815	0.099
70.900	21.372	0.100
71.000	18.840	0.100
71.100	20.787	0.100
71.200	19.839	0.100
71.300	33.952	0.100
71.400	-3.535	0.099
71.500	34.760	0.100
71.600	12.638	0.100
71.700	28.681	0.099
71.800	25.368	0.100
71.900	14.362	0.100
72.000	20.953	0.099
72.100	18.385	0.100
72.200	22.157	0.099
72.300	10.238	0.100
72.400	8.102	0.099
72.500	34.460	0.100
72.600	11.998	0.099
72.700	20.195	0.100
72.800	26.810	0.100
72.900	19.141	0.100
73.000	24.608	0.099
73.100	28.289	0.100
73.200	27.223	0.099
73.300	19.566	0.100
73.400	14.923	0.100
73.500	19.659	0.099
73.600	11.894	0.099
73.700	38.260	0.099
73.800	14.406	0.100
73.900	39.460	0.100
74.000	-0.265	0.099
74.100	20.066	0.100
74.200	8.912	0.099
74.300	11.925	0.100
74.400	8.078	0.100
74.500	44.876	0.099
74.600	28.288	0.099
74.700	23.717	0.100
74.800	17.175	0.100
74.900	6.244	0.099
75.000	21.274	0.099
75.100	11.053	0.099
75.200	13.462	0.099
75.300	17.634	0.099
75.400	29.507	0.100
75.500	24.723	0.100
75.600	15.854	0.099
75.700	30.519	0.100
75.800	27.559	0.099
75.900	30.294	0.100
76.000	22.836	0.099
76.100	17.474	0.100
76.200	4.901	0.100
76.300	31.057	0.100
76.400	18.362	0.100
76.500	10.011	0.100
76.600	35.552	0.100
76.700	32.915	0.100
76.800	21.483	0.100
76.900	14.441	0.099
77.000	-4.427	0.099
77.100	27.114	0.100
77.200	34.407	0.099
77.300	23.436	0.100
77.400	24.856	0.100
77.500	18.595	0.099
77.600	32.179	0.100
77.700	23.522	0.100
77.800	22.027	0.099
77.900	13.188	0.099
78.000	27.262	0.099
78.100	11.327	0.100
78.200	22.846	0.099
78.300	24.920	0.099
78.400	22.205	0.100
78.500	16.727	0.100
78.600	12.867	0.100
78.700	25.045	0.099
78.800	17.009	0.100
78.900	15.723	0.099
79.000	-7.509	0.100
79.100	21.257	0.100
79.200	18.794	0.099
79.300	33.468	0.100
79.400	18.482	0.100
79.500	42.299	0.100
79.600	11.258	0.100
79.700	20.097	0.100
79.800	23.536	0.099
79.900	31.120	0.100
80.000	14.232	0.100
80.100	11.091	0.100
80.200	27.271	0.100
80.300	13.411	0.099
80.400	23.215	0.100
80.500	10.596	0.100
80.600	24.828	0.099
80.700	23.561	0.100
80.800	7.742	0.099
80.900	22.352	0.100
81.000	31.813	0.100
81.100	22.968	0.100
81.200	-0.294	0.100
81.300	31.624	0.099
81.400	24.244	0.100
81.500	11.835	0.100
81.600	23.516	0.100
81.700	21.032	0.100
81.800	26.846	0.100
81.900	16.461	0.100
82.000	17.007	0.100
82.100	34.590	0.100
82.200	26.465	0.100
82.300	8.947	0.100
82.400	14.255	0.100
82.500	19.214	0.100
82.600	17.382	0.100
82.700	14.987	0.100
82.800	29.990	0.100
82.900	16.846	0.100
83.000	19.968	0.099
83.100	20.838	0.099
83.200	11.461	0.100
83.300	21.721	0.100
83.400	24.086	0.100
83.500	33.810	0.100
83.600	17.431	0.100
83.700	21.438	0.100
83.800	26.203	0.100
83.900	23.132	0.100
84.000	14.716	0.100
84.100	27.459	0.100
84.200	40.444	0.100
84.300	21.346	0.099
84.400	17.274	0.099
84.500	22.698	0.100
84.600	18.530	0.100
84.700	23.029	0.100
84.800	14.260	0.099
84.900	34.702	0.100
85.000	31.867	0.100
85.100	23.519	0.100
85.200	29.737	0.100
85.300	17.080	0.100
85.400	20.844	0.100
85.500	31.930	0.100
85.600	29.787	0.100
85.700	28.903	0.099
85.800	26.198	0.100
85.900	11.885	0.100
86.000	22.148	0.099
86.100	19.975	0.100
86.200	11.529	0.100
86.300	24.689	0.099
86.400	18.491	0.100
86.500	22.434	0.100
86.600	25.553	0.100
86.700	22.406	0.100
86.800	10.174	0.100
86.900	27.073	0.100
87.000	15.978	0.099
87.100	39.541	0.100
87.200	31.365	0.100
87.300	18.895	0.100
87.400	29.873	0.100
87.500	35.291	0.100
87.600	2.753	0.100
87.700	13.624	0.100
87.800	40.878	0.100
87.900	34.815	0.100
88.000	27.384	0.100
88.100	23.894	0.100
88.200	24.042	0.100
88.300	32.001	0.100
88.400	32.476	0.100
88.500	22.777	0.100
88.600	22.554	0.100
88.700	21.236	0.100
88.800	-5.827	0.100
88.900	13.984	0.099
89.000	28.342	0.100
89.100	35.671	0.099
89.200	16.305	0.099
89.300	21.486	0.100
89.400	14.049	0.099
89.500	21.442	0.099
89.600	33.911	0.100
89.700	31.806	0.100
89.800	1.772	0.099
89.900	25.722	0.100
90.000	28.734	0.099
90.100	26.428	0.099
90.200	7.148	0.099
90.300	15.232	0.100
90.400	25.407	0.100
90.500	26.743	0.099
90.600	12.689	0.099
90.700	10.418	0.100
90.800	20.346	0.100
90.900	15.730	0.100
91.000	6.903	0.100
91.100	33.239	0.100
91.200	-3.594	0.100
91.300	-3.655	0.100
91.400	20.568	0.100
91.500	4.023	0.100
91.600	7.170	0.100
91.700	-2.452	0.100
91.800	12.987	0.100
91.900	2.657	0.099
92.000	-4.446	0.100
92.100	-2.080	0.100
92.200	-18.157	0.100
92.300	-1.294	0.100
92.400	-4.530	0.100
92.500	-6.354	0.100
92.600	-2.684	0.100
92.700	-14.153	0.099
92.800	-1.054	0.100
92.900	-13.345	0.100
93.000	-8.348	0.100
93.100	-14.239	0.099
93.200	-19.166	0.100
93.300	-13.937	0.100
93.400	-3.953	0.099
93.500	-30.314	0.100
93.600	-1.788	0.100
93.700	-10.073	0.100
93.800	-15.545	0.100
93.900	-10.724	0.100
94.000	-4.693	0.100
94.100	-39.810	0.100
94.200	-6.165	0.100
94.300	-23.052	0.100
94.400	-21.169	0.100
94.500	-12.215	0.099
94.600	-37.506	0.099
94.700	-18.583	0.100
94.800	-14.582	0.100
94.900	-12.460	0.100
95.000	-16.696	0.100
95.100	-32.355	0.100
95.200	-17.184	0.100
95.300	-20.047	0.100
95.400	-15.996	0.099
95.500	-12.214	0.100
95.600	-31.644	0.100
95.700	-19.368	0.099
95.800	0.711	0.099
95.900	-17.507	0.100
96.000	-32.784	0.100
96.100	-33.988	0.100
96.200	5.659	0.100
96.300	-22.663	0.100
96.400	-25.864	0.100
96.500	4.500	0.099
96.600	-21.641	0.099
96.700	-34.305	0.099
96.800	-15.162	0.100
96.900	-25.931	0.100
97.000	-25.130	0.100
97.100	-8.076	0.100
97.200	-14.902	0.099
97.300	-12.318	0.099
97.400	-20.602	0.100
97.500	-27.783	0.099
97.600	-18.530	0.099
97.700	-38.451	0.100
97.800	2.241	0.099
97.900	-3.572	0.100
98.000	-13.530	0.099
98.100	-25.962	0.100
98.200	-17.252	0.100
98.300	-18.580	0.100
98.400	-31.598	0.100
98.500	-12.023	0.099
98.600	-14.233	0.100
98.700	-15.025	0.100
98.800	-11.024	0.100
98.900	-28.293	0.100
99.000	-22.728	0.100
99.100	-11.207	0.100
99.200	-18.439	0.100
99.300	-9.269	0.100
99.400	-28.650	0.100
99.500	-2.663	0.100
99.600	-28.927	0.100
99.700	-6.563	0.099
99.800	-12.537	0.100
99.900	-34.388	0.099
100.000	-16.693	0.100
100.100	-16.044	0.100
100.200	0.000	0.100
100.300	-17.053	0.100
100.400	-22.308	0.100
100.500	-16.585	0.100
100.600	12.482	0.100
100.700	-32.426	0.100
100.800	-18.879	0.100
100.900	-4.596	0.100
101.000	-39.405	0.100
101.100	-19.687	0.100
101.200	-11.058	0.100
101.300	5.121	0.100
101.400	-6.058	0.100
101.500	-2.767	0.100
101.600	-23.340	0.100
101.700	-5.318	0.099
101.800	-19.362	0.100
101.900	-15.925	0.100
102.000	-15.276	0.100
102.100	-26.222	0.100
102.200	-29.282	0.100
102.300	12.495	0.100
102.400	-13.863	0.100
102.500	-9.763	0.100
102.600	-3.129	0.100
102.700	-5.809	0.100
102.800	-18.737	0.099
102.900	-10.589	0.099
103.000	-7.539	0.100
103.100	3.105	0.100
103.200	-2.616	0.100
103.300	-23.658	0.100
103.400	-12.284	0.100
103.500	-16.800	0.100
103.600	-17.640	0.099
103.700	-6.891	0.100
103.800	-14.289	0.100
103.900	-4.894	0.100
104.000	-19.774	0.100
104.100	-9.731	0.100
104.200	-32.239	0.100
104.300	-21.028	0.100
104.400	8.837	0.100
104.500	-1.375	0.100
104.600	-15.462	0.100
104.700	-1.294	0.100
104.800	-0.876	0.100
104.900	-27.375	0.100
105.000	-9.460	0.100
105.100	-6.285	0.100
105.200	-12.775	0.100
105.300	4.443	0.100
105.400	-18.742	0.100
105.500	-15.680	0.100
105.600	6.099	0.100
105.700	-14.070	0.099
105.800	-14.735	0.100
105.900	-12.597	0.100
106.000	-20.027	0.099
106.100	-14.575	0.100
106.200	11.397	0.100
106.300	-23.709	0.100
106.400	9.405	0.100
106.500	-6.849	0.099
106.600	0.035	0.100
106.700	3.362	0.100
106.800	-24.016	0.100
106.900	-8.367	0.100
107.000	-10.900	0.100
107.100	-8.316	0.100
107.200	-3.142	0.100
107.300	-15.959	0.100
107.400	-15.100	0.100
107.500	-3.399	0.100
107.600	-7.099	0.100
107.700	-13.360	0.100
107.800	-14.931	0.100
107.900	-8.845	0.099
108.000	1.649	0.100
108.100	0.395	0.100
108.200	2.655	0.100
108.300	-16.404	0.100
108.400	7.081	0.100
108.500	-6.382	0.100
108.600	-7.384	0.100
108.700	-9.527	0.100
108.800	-6.039	0.100
108.900	-19.814	0.099
109.000	-7.022	0.100
109.100	-12.080	0.099
109.200	-16.350	0.100
109.300	12.930	0.100
109.400	0.935	0.100
109.500	-14.825	0.100
109.600	3.264	0.100
109.700	-11.010	0.100
109.800	-14.306	0.100
109.900	20.472	0.100
110.000	-3.761	0.100
110.100	-11.072	0.100
110.200	-13.342	0.100
110.300	-9.893	0.100
110.400	-25.155	0.100
110.500	-3.690	0.100
110.600	1.480	0.100
110.700	5.310	0.100
110.800	-21.564	0.100
110.900	0.076	0.099
111.000	-15.879	0.100
111.100	-12.067	0.100
111.200	-6.095	0.100
111.300	-24.378	0.100
111.400	-12.800	0.100
111.500	-6.529	0.100
111.600	-2.012	0.100
111.700	-17.729	0.100
111.800	-14.977	0.100
111.900	5.275	0.100
112.000	1.368	0.100
112.100	-30.239	0.100
112.200	-8.613	0.099
112.300	-18.332	0.100
112.400	2.678	0.100
112.500	-1.590	0.099
112.600	-18.847	0.100
112.700	-12.855	0.099
112.800	-5.879	0.100
112.900	-10.054	0.100
113.000	-1.890	0.100
113.100	0.872	0.100
113.200	-0.464	0.100
113.300	-0.349	0.100
113.400	-35.076	0.100
113.500	-4.076	0.100
113.600	-1.623	0.100
113.700	8.786	0.100
113.800	-24.092	0.100
113.900	0.583	0.100
114.000	-1.047	0.100
114.100	-1.437	0.100
114.200	-8.074	0.100
114.300	-14.103	0.100
114.400	-7.560	0.100
114.500	-17.662	0.100
114.600	1.466	0.100
114.700	-9.002	0.100
114.800	0.136	0.100
114.900	-9.195	0.100
115.000	-11.977	0.100
115.100	-3.439	0.099
115.200	15.730	0.100
115.300	-25.446	0.100
115.400	-3.779	0.100
115.500	-14.298	0.100
115.600	-7.744	0.100
115.700	10.291	0.100
115.800	-14.127	0.100
115.900	-6.174	0.100
116.000	-7.016	0.100
116.100	-4.725	0.100
116.200	-3.403	0.099
116.300	-3.271	0.100
116.400	-6.838	0.100
116.500	-8.545	0.100
116.600	-21.786	0.099
116.700	-13.361	0.100
116.800	-2.004	0.099
116.900	-2.544	0.100
117.000	-16.543	0.100
117.100	-1.603	0.100
117.200	-13.557	0.099
117.300	-0.108	0.099
117.400	-14.289	0.100
117.500	-9.113	0.100
117.600	-8.764	0.099
117.700	-6.978	0.100
117.800	-14.048	0.100
117.900	-11.010	0.100
118.000	-11.843	0.100
118.100	14.917	0.099
118.200	-22.292	0.100
118.300	-17.340	0.099
118.400	-14.715	0.100
118.500	3.432	0.099
118.600	3.883	0.100
118.700	-9.859	0.099
118.800	0.295	0.100
118.900	-17.663	0.100
119.000	-12.009	0.100
119.100	12.242	0.100
119.200	-28.891	0.100
119.300	-5.409	0.100
119.400	-3.215	0.099
119.500	-17.652	0.100
119.600	-12.607	0.100
119.700	-13.056	0.100
119.800	-11.598	0.100
119.900	-3.719	0.100
120.000	-16.398	0.100
120.100	21.704	0.100
120.200	-19.355	0.100
120.300	-15.107	0.100
120.400	-2.535	0.100
120.500	-11.486	0.100
120.600	-18.871	0.099
120.700	-17.581	0.099
120.800	-4.716	0.100
120.900	8.210	0.100
121.000	-23.410	0.100
121.100	0.630	0.099
121.200	-27.981	0.099
121.300	-4.791	0.100
121.400	-2.166	0.100
121.500	-10.353	0.100
121.600	1.399	0.100
121.700	-26.306	0.099
121.800	-24.908	0.100
121.900	4.442	0.099
122.000	-10.544	0.099
122.100	-10.565	0.099
122.200	-7.094	0.100
122.300	-10.867	0.100
122.400	-0.942	0.099
122.500	-5.567	0.100
122.600	2.911	0.100
122.700	-0.157	0.100
122.800	-16.039	0.100
122.900	-20.774	0.099
123.000	-5.252	0.099
123.100	-18.027	0.099
123.200	-14.627	0.100
123.300	-7.364	0.099
123.400	1.456	0.100
123.500	-8.001	0.099
123.600	-8.690	0.100
123.700	-3.615	0.100
123.800	-13.692	0.100
123.900	1.790	0.100
124.000	-11.847	0.100
124.100	-2.782	0.100
124.200	-5.096	0.100
124.300	-10.722	0.100
124.400	2.569	0.100
124.500	-1.642	0.100
124.600	-16.731	0.100
124.700	-9.103	0.100
124.800	4.659	0.100
124.900	-11.805	0.100
125.000	-5.771	0.100
125.100	-23.351	0.100
125.200	-7.603	0.100
125.300	-10.256	0.099
125.400	-7.058	0.100
125.500	-0.981	0.100
125.600	-8.418	0.100
125.700	-13.853	0.100
125.800	-6.319	0.100
125.900	-3.541	0.100
126.000	0.599	0.100
126.100	-13.632	0.100
126.200	-12.477	0.099
126.300	-2.468	0.100
126.400	0.882	0.100
126.500	-5.906	0.099
126.600	2.258	0.100
126.700	-20.053	0.100
126.800	-3.222	0.100
126.900	-14.579	0.100
127.000	-20.848	0.100
127.100	-9.725	0.100
127.200	-5.769	0.100
127.300	1.614	0.100
127.400	-9.233	0.100
127.500	0.761	0.100
127.600	-8.560	0.100
127.700	-12.909	0.100
127.800	-10.827	0.100
127.900	-12.196	0.100
128.000	-5.021	0.099
128.100	-13.680	0.099
128.200	-14.424	0.100
128.300	-8.350	0.100
128.400	-13.434	0.100
128.500	4.558	0.100
128.600	-16.001	0.100
128.700	-12.812	0.100
128.800	-17.535	0.100
128.900	0.883	0.100
129.000	-21.407	0.100
129.100	-16.811	0.100
129.200	2.397	0.100
129.300	-33.013	0.100
129.400	-8.935	0.100
129.500	0.500	0.100
129.600	-2.345	0.100
129.700	-9.446	0.100
129.800	-10.044	0.100
129.900	-22.150	0.099
130.000	8.829	0.100
130.100	-17.154	0.099
130.200	-8.563	0.100
130.300	6.100	0.100
130.400	-32.216	0.100
130.500	-10.890	0.100
130.600	12.602	0.100
130.700	8.210	0.100
130.800	-14.629	0.100
130.900	7.138	0.100
131.000	-10.217	0.100
131.100	-3.811	0.100
131.200	-12.729	0.100
131.300	-21.427	0.100
131.400	-5.930	0.100
131.500	-15.103	0.100
131.600	-18.520	0.100
131.700	-21.806	0.100
131.800	-9.952	0.100
131.900	-9.740	0.100
132.000	-2.125	0.100
132.100	-2.557	0.100
132.200	-29.465	0.099
132.300	-2.059	0.100
132.400	-2.867	0.100
132.500	-6.953	0.099
132.600	-20.140	0.100
132.700	-4.006	0.100
132.800	-3.001	0.100
132.900	-8.853	0.099
133.000	-23.324	0.099
133.100	-9.371	0.100
133.200	-3.579	0.099
133.300	-10.313	0.100
133.400	-6.422	0.099
133.500	-13.249	0.100
133.600	-15.442	0.100
133.700	-20.934	0.099
133.800	-4.022	0.100
133.900	-8.151	0.100
134.000	-11.133	0.100
134.100	10.199	0.099
134.200	-8.225	0.100
134.300	4.457	0.100
134.400	6.303	0.100
134.500	-4.437	0.100
134.600	-0.542	0.100
134.700	-8.413	0.099
134.800	-28.778	0.100
134.900	-8.628	0.100
135.000	-1.227	0.100
135.100	-25.446	0.100
135.200	-3.271	0.100
135.300	-7.229	0.100
135.400	-17.274	0.100
135.500	-11.721	0.100
135.600	-11.909	0.100
135.700	-7.894	0.100
135.800	10.638	0.100
135.900	-11.117	0.099
136.000	-18.760	0.100
136.100	-7.744	0.099
136.200	-10.394	0.099
136.300	-7.296	0.100
136.400	-3.669	0.100
136.500	-36.177	0.100
136.600	-11.170	0.100
136.700	-7.634	0.099
136.800	-7.200	0.100
136.900	0.160	0.100
137.000	-14.363	0.100
137.100	-11.514	0.100
137.200	-17.059	0.100
137.300	-8.561	0.100
137.400	0.078	0.100
137.500	-28.766	0.100
137.600	-9.179	0.100
137.700	8.311	0.100
137.800	-14.814	0.100
137.900	-1.959	0.100
138.000	-7.495	0.100
138.100	0.409	0.100
138.200	-14.690	0.100
138.300	-6.623	0.100
138.400	-11.595	0.100
138.500	8.855	0.100
138.600	-17.387	0.100
138.700	-24.726	0.100
138.800	-0.350	0.100
138.900	-6.639	0.100
139.000	14.015	0.100
139.100	-28.238	0.100
139.200	-17.322	0.100
139.300	-15.378	0.100
139.400	-1.663	0.100
139.500	-1.709	0.100
139.600	-1.292	0.100
139.700	-20.491	0.100
139.800	-6.579	0.100
139.900	-11.592	0.100
140.000	-5.735	0.100
140.100	-10.768	0.100
140.200	-2.459	0.100
140.300	-17.859	0.099
140.400	-13.023	0.100
140.500	-13.770	0.100
140.600	-2.020	0.100
140.700	-13.255	0.100
140.800	-27.054	0.100
140.900	6.921	0.100
141.000	-17.491	0.100
141.100	12.274	0.100
141.200	-25.464	0.100
141.300	-5.491	0.100
141.400	-7.939	0.100
141.500	-23.982	0.100
141.600	2.101	0.100
141.700	-13.605	0.100
141.800	-2.721	0.100
141.900	-13.740	0.100
142.000	4.242	0.100
142.100	-12.721	0.100
142.200	-29.159	0.099
142.300	-16.271	0.099
142.400	-0.844	0.100
142.500	5.329	0.100
142.600	-3.658	0.100
142.700	-19.235	0.099
142.800	-20.145	0.100
142.900	-20.482	0.100
143.000	-14.013	0.100
143.100	-0.068	0.099
143.200	-7.288	0.100
143.300	-4.223	0.100
143.400	-7.618	0.100
143.500	-13.653	0.099
143.600	-19.997	0.100
143.700	10.597	0.100
143.800	-6.706	0.100
143.900	-22.586	0.100
144.000	6.350	0.099
144.100	-4.188	0.100
144.200	-13.494	0.100
144.300	-10.357	0.100
144.400	-18.432	0.099
144.500	-27.717	0.100
144.600	-2.596	0.100
144.700	9.245	0.100
144.800	-13.884	0.100
144.900	-16.517	0.100
145.000	7.684	0.100
145.100	-7.006	0.100
145.200	-2.485	0.099
145.300	-1.487	0.100
145.400	-3.400	0.100
145.500	-7.580	0.100
145.600	-20.350	0.100
145.700	4.561	0.099
145.800	-12.942	0.100
145.900	-18.156	0.100
146.000	-0.375	0.099
146.100	-7.071	0.099
146.200	-6.159	0.099
146.300	-10.300	0.100
146.400	-9.168	0.099
146.500	3.533	0.100
146.600	6.208	0.099
146.700	-22.711	0.100
146.800	-12.785	0.099
146.900	-17.174	0.100
147.000	-13.304	0.100
147.100	-24.120	0.099
147.200	8.352	0.100
147.300	-8.821	0.100
147.400	1.333	0.100
147.500	-4.542	0.100
147.600	-23.958	0.099
147.700	-17.234	0.100
147.800	-7.873	0.099
147.900	6.237	0.100
148.000	-13.751	0.100
148.100	-6.433	0.100
148.200	-10.338	0.100
148.300	-22.788	0.099
148.400	-16.815	0.100
148.500	-10.885	0.100
148.600	-3.896	0.100
148.700	-2.467	0.099
148.800	1.992	0.100
148.900	-16.002	0.099
149.000	-26.018	0.099
149.100	-3.089	0.100
149.200	-6.835	0.100
149.300	-17.586	0.100
149.400	-13.583	0.099
149.500	3.952	0.100
149.600	-6.288	0.100
149.700	-8.354	0.100
149.800	-0.461	0.100
149.900	-31.977	0.100
150.000	2.041	0.100
150.100	-13.974	0.100
150.200	-14.811	0.100
150.300	-10.493	0.100
150.400	-0.077	0.100
150.500	-10.814	0.100
150.600	-8.575	0.100
150.700	2.817	0.100
150.800	-7.074	0.100
150.900	-9.088	0.100
151.000	-19.070	0.100
151.100	-2.407	0.100
151.200	-20.426	0.100
151.300	-3.272	0.099
151.400	-14.975	0.100
151.500	-4.300	0.100
151.600	-14.043	0.100
151.700	-23.360	0.100
151.800	-13.431	0.100
151.900	-6.169	0.100
152.000	-11.111	0.100
152.100	4.084	0.100
152.200	-6.340	0.100
152.300	2.526	0.100
152.400	-6.542	0.100
152.500	-27.019	0.099
152.600	-20.153	0.100
152.700	-6.468	0.100
152.800	-19.384	0.099
152.900	-10.092	0.100
153.000	-3.883	0.100
153.100	14.260	0.099
153.200	-15.438	0.100
153.300	-13.526	0.099
153.400	-20.636	0.100
153.500	-3.295	0.100
153.600	-9.888	0.100
153.700	-26.481	0.100
153.800	-0.976	0.100
153.900	-8.749	0.100
154.000	-4.613	0.100
154.100	-8.855	0.100
154.200	-1.045	0.100
154.300	-8.892	0.100
154.400	2.582	0.100
154.500	-4.922	0.100
154.600	-10.770	0.100
154.700	-6.132	0.100
154.800	-20.029	0.100
154.900	-14.398	0.100
155.000	-23.816	0.100
155.100	-0.149	0.100
155.200	-14.463	0.100
155.300	-5.858	0.100
155.400	-18.848	0.100
155.500	-0.870	0.100
155.600	-16.502	0.100
155.700	-12.225	0.100
155.800	-40.563	0.100
155.900	6.471	0.100
156.000	-7.796	0.100
156.100	-18.833	0.100
156.200	-12.346	0.100
156.300	11.584	0.100
156.400	-6.024	0.100
156.500	-14.971	0.100
156.600	-22.241	0.100
156.700	2.980	0.100
156.800	-12.948	0.100
156.900	-2.711	0.100
157.000	-6.497	0.100
157.100	-3.069	0.100
157.200	-8.722	0.100
157.300	-16.550	0.100
157.400	1.426	0.100
157.500	-6.267	0.100
157.600	-3.654	0.100
157.700	3.410	0.100
157.800	-9.947	0.100
157.900	4.938	0.100
158.000	-12.780	0.100
158.100	-26.784	0.100
158.200	-5.075	0.100
158.300	-14.608	0.100
158.400	11.287	0.100
158.500	-7.762	0.100
158.600	-17.243	0.100
158.700	-5.069	0.100
158.800	-5.164	0.100
158.900	-11.927	0.100
159.000	-28.808	0.100
159.100	1.353	0.100
159.200	-6.610	0.100
159.300	-3.840	0.100
159.400	16.944	0.100
159.500	-17.876	0.100
159.600	-12.255	0.100
159.700	-16.159	0.100
159.800	-1.841	0.100
159.900	-4.384	0.100
160.000	-4.218	0.100
160.100	8.182	0.100
160.200	-32.758	0.100
160.300	-4.485	0.100
160.400	-10.042	0.100
160.500	-14.498	0.100
160.600	-1.779	0.100
160.700	-0.300	0.100
160.800	-11.159	0.100
160.900	-33.748	0.100
161.000	-8.602	0.100
161.100	-19.237	0.100
161.200	-25.002	0.099
161.300	-7.276	0.100
161.400	-1.315	0.100
161.500	-6.979	0.100
161.600	-2.607	0.100
161.700	-13.869	0.100
161.800	-6.047	0.100
161.900	-7.909	0.100
162.000	-9.176	0.100
162.100	-26.990	0.100
162.200	-14.775	0.100
162.300	-11.228	0.100
162.400	-11.500	0.100
162.500	-14.445	0.100
162.600	8.632	0.100
162.700	-4.849	0.100
162.800	-16.928	0.100
162.900	-5.558	0.100
163.000	2.412	0.100
163.100	-18.230	0.100
163.200	-19.378	0.100
163.300	-7.734	0.100
163.400	-1.048	0.100
163.500	-6.615	0.100
163.600	-16.480	0.100
163.700	4.759	0.100
163.800	-10.783	0.100
163.900	-2.584	0.099
164.000	-12.653	0.100
164.100	-21.173	0.100
164.200	-7.881	0.100
164.300	1.308	0.100
164.400	2.290	0.100
164.500	-14.811	0.100
164.600	-8.370	0.100
164.700	-16.809	0.100
164.800	-8.693	0.100
164.900	-12.494	0.100
165.000	0.380	0.100
165.100	-16.940	0.100
165.200	5.395	0.100
165.300	-33.332	0.100
165.400	1.774	0.100
165.500	-5.835	0.100
165.600	1.156	0.100
165.700	-0.828	0.100
165.800	-13.008	0.100
165.900	-20.914	0.100
166.000	0.569	0.100
166.100	-0.327	0.100
166.200	-12.424	0.100
166.300	-1.594	0.100
166.400	-23.880	0.100
166.500	-1.907	0.100
166.600	-7.602	0.100
166.700	-16.646	0.100
166.800	-15.664	0.100
166.900	-5.484	0.099
167.000	-10.556	0.100
167.100	-22.493	0.100
167.200	8.878	0.100
167.300	-9.634	0.100
167.400	-36.179	0.100
167.500	-1.604	0.100
167.600	6.476	0.100
167.700	-7.508	0.100
167.800	7.629	0.100
167.900	-2.285	0.100
168.000	-19.714	0.100
168.100	-14.339	0.100
168.200	-2.153	0.100
168.300	3.322	0.100
168.400	-32.541	0.100
168.500	-0.079	0.100
168.600	2.927	0.100
168.700	-6.745	0.100
168.800	-9.933	0.100
168.900	-11.188	0.100
169.000	-2.384	0.100
169.100	-25.563	0.100
169.200	2.578	0.100
169.300	-24.433	0.100
169.400	-22.151	0.100
169.500	9.623	0.100
169.600	-6.290	0.100
169.700	-5.086	0.100
169.800	-10.601	0.100
169.900	-13.494	0.100
170.000	-5.508	0.100
170.100	-11.698	0.100
170.200	-3.623	0.100
170.300	-7.127	0.100
170.400	-24.036	0.100
170.500	-3.794	0.100
170.600	13.630	0.100
170.700	-27.479	0.100
170.800	-21.089	0.100
170.900	-10.113	0.100
171.000	-18.517	0.100
171.100	-22.115	0.100
171.200	-2.502	0.100
171.300	-23.351	0.100
171.400	10.810	0.100
171.500	-20.790	0.100
171.600	2.074	0.100
171.700	2.892	0.100
171.800	2.071	0.100
171.900	-4.286	0.100
172.000	4.268	0.100
172.100	-27.419	0.100
172.200	10.772	0.100
172.300	-24.722	0.100
172.400	-4.006	0.100
172.500	-14.554	0.100
172.600	-19.366	0.100
172.700	0.280	0.100
172.800	-17.444	0.100
172.900	1.109	0.100
173.000	-7.668	0.100
173.100	-22.771	0.100
173.200	-12.851	0.100
173.300	-7.300	0.100
173.400	-9.633	0.100
173.500	23.937	0.100
173.600	-5.789	0.100
173.700	-16.173	0.100
173.800	-12.575	0.100
173.900	-13.925	0.100
174.000	-9.654	0.100
174.100	-0.488	0.100
174.200	-16.018	0.100
174.300	-4.810	0.100
174.400	-10.757	0.100
174.500	3.487	0.100
174.600	-9.038	0.100
174.700	-29.754	0.100
174.800	-8.953	0.100
174.900	-10.792	0.100
175.000	18.817	0.100
175.100	-4.658	0.100
175.200	-8.051	0.100
175.300	-16.671	0.100
175.400	-7.230	0.100
175.500	-24.066	0.100
175.600	4.738	0.100
175.700	-18.193	0.100
175.800	-8.282	0.100
175.900	-7.309	0.100
176.000	-5.960	0.100
176.100	-5.008	0.100
176.200	-0.712	0.100
176.300	-5.940	0.100
176.400	-14.304	0.100
176.500	-17.972	0.100
176.600	-6.780	0.100
176.700	0.474	0.100
176.800	12.658	0.100
176.900	-14.813	0.100
177.000	-3.966	0.100
177.100	-5.801	0.100
177.200	-30.411	0.100
177.300	-27.417	0.100
177.400	-13.379	0.100
177.500	-7.215	0.100
177.600	-17.058	0.100
177.700	-19.745	0.100
177.800	-9.243	0.100
177.900	-19.473	0.100
178.000	-5.578	0.100
178.100	-10.635	0.100
178.200	2.917	0.100
178.300	-15.330	0.100
178.400	-14.702	0.100
178.500	-8.702	0.100
178.600	-10.271	0.100
178.700	-17.063	0.100
178.800	-11.455	0.100
178.900	-13.304	0.100
179.000	0.468	0.100
179.100	-11.972	0.100
179.200	-1.876	0.100
179.300	-16.382	0.099
179.400	2.878	0.100
179.500	-26.372	0.100
179.600	-11.993	0.100
179.700	2.364	0.100
179.800	-5.592	0.100
179.900	-18.491	0.100
180.000	10.276	0.100
180.100	-22.735	0.100
180.200	-0.334	0.100
180.300	-8.705	0.100
180.400	-18.049	0.100
180.500	3.366	0.100
180.600	-12.083	0.100
180.700	-21.643	0.100
180.800	-0.243	0.100
180.900	-3.066	0.100
181.000	13.730	0.100
181.100	7.109	0.100
181.200	-2.929	0.100
181.300	6.317	0.100
181.400	17.370	0.100
181.500	7.793	0.100
181.600	-13.967	0.100
181.700	12.578	0.100
181.800	3.423	0.100
181.900	14.419	0.100
182.000	20.738	0.100
182.100	24.350	0.100
182.200	7.550	0.099
182.300	26.574	0.100
182.400	15.970	0.100
182.500	8.379	0.100
182.600	5.850	0.100
182.700	20.631	0.100
182.800	0.346	0.100
182.900	-3.223	0.100
183.000	24.840	0.100
183.100	24.000	0.100
183.200	15.918	0.100
183.300	24.429	0.100
183.400	18.398	0.100
183.500	-5.125	0.100
183.600	27.484	0.100
183.700	5.773	0.100
183.800	18.127	0.100
183.900	12.188	0.100
184.000	23.859	0.099
184.100	12.320	0.100
184.200	13.272	0.100
184.300	19.339	0.100
184.400	5.605	0.100
184.500	5.924	0.100
184.600	12.856	0.100
184.700	0.840	0.100
184.800	1.562	0.100
184.900	8.852	0.100
185.000	3.264	0.100
185.100	-1.447	0.100
185.200	14.540	0.100
185.300	35.132	0.100
185.400	19.111	0.100
185.500	22.409	0.100
185.600	13.302	0.100
185.700	-8.979	0.100
185.800	15.639	0.100
185.900	15.890	0.100
186.000	13.740	0.100
186.100	0.514	0.100
186.200	18.063	0.100
186.300	4.358	0.100
186.400	8.578	0.100
186.500	-3.063	0.100
186.600	10.461	0.100
186.700	22.931	0.100
186.800	13.219	0.100
186.900	-1.837	0.100
187.000	12.042	0.100
187.100	14.268	0.100
187.200	-10.005	0.100
187.300	15.467	0.100
187.400	18.042	0.100
187.500	0.225	0.100
187.600	-8.646	0.100
187.700	1.565	0.100
187.800	12.756	0.100
187.900	-6.940	0.100
188.000	14.639	0.100
188.100	13.323	0.100
188.200	-2.719	0.100
188.300	9.701	0.100
188.400	2.129	0.100
188.500	12.663	0.100
188.600	22.914	0.100
188.700	-4.777	0.100
188.800	24.671	0.100
188.900	-11.104	0.099
189.000	-2.524	0.100
189.100	9.614	0.100
189.200	26.319	0.100
189.300	20.752	0.100
189.400	19.322	0.100
189.500	-3.359	0.100
189.600	13.616	0.099
189.700	10.767	0.100
189.800	17.883	0.100
189.900	7.804	0.099
190.000	10.623	0.100
190.100	4.638	0.100
190.200	11.602	0.100
190.300	22.054	0.100
190.400	10.995	0.100
190.500	9.798	0.100
190.600	0.377	0.099
190.700	2.834	0.100
190.800	32.833	0.100
190.900	13.910	0.100
191.000	15.558	0.099
191.100	16.858	0.100
191.200	18.825	0.100
191.300	12.236	0.100
191.400	19.066	0.100
191.500	28.053	0.100
191.600	5.497	0.100
191.700	11.206	0.100
191.800	6.448	0.100
191.900	18.576	0.100
192.000	46.405	0.100
192.100	20.286	0.100
192.200	21.676	0.100
192.300	24.382	0.100
192.400	17.150	0.100
192.500	13.890	0.100
192.600	9.530	0.100
192.700	21.307	0.100
192.800	23.784	0.100
192.900	21.251	0.100
193.000	23.459	0.100
193.100	16.322	0.100
193.200	-3.072	0.100
193.300	16.755	0.100
193.400	14.561	0.100
193.500	11.463	0.100
193.600	30.702	0.100
193.700	6.949	0.100
193.800	38.898	0.100
193.900	17.089	0.100
194.000	19.668	0.100
194.100	22.625	0.100
194.200	27.431	0.100
194.300	20.234	0.100
194.400	20.192	0.100
194.500	23.145	0.100
194.600	11.705	0.100
194.700	33.651	0.100
194.800	20.263	0.100
194.900	18.287	0.100
195.000	22.480	0.100
195.100	14.712	0.100
195.200	24.513	0.100
195.300	42.783	0.100
195.400	35.924	0.100
195.500	14.725	0.100
195.600	54.074	0.100
195.700	22.289	0.100
195.800	28.045	0.100
195.900	26.829	0.100
196.000	12.894	0.099
196.100	42.093	0.100
196.200	22.934	0.099
196.300	32.727	0.100
196.400	40.282	0.100
196.500	28.123	0.100
196.600	32.651	0.100
196.700	41.561	0.100
196.800	21.909	0.100
196.900	41.941	0.100
197.000	25.241	0.100
197.100	31.827	0.100
197.200	45.421	0.100
197.300	17.208	0.100
197.400	34.625	0.100
197.500	24.824	0.100
197.600	26.840	0.100
197.700	50.497	0.100
197.800	36.246	0.100
197.900	32.905	0.100
198.000	24.356	0.099
198.100	36.680	0.100
198.200	23.847	0.100
198.300	45.121	0.100
198.400	36.185	0.100
198.500	27.518	0.100
198.600	18.785	0.100
198.700	32.443	0.100
198.800	32.558	0.100
198.900	40.212	0.100
199.000	37.118	0.100
199.100	26.119	0.100
199.200	38.277	0.100
199.300	25.861	0.100
199.400	29.147	0.100
199.500	38.897	0.100
199.600	18.132	0.100
199.700	44.551	0.100
199.800	37.556	0.100
199.900	49.491	0.100
200.000	39.994	0.100
200.100	18.954	0.100
200.200	39.477	0.100
200.300	37.206	0.100
200.400	32.269	0.100
200.500	36.635	0.100
200.600	44.225	0.100
200.700	28.339	0.100
200.800	39.797	0.100
200.900	35.794	0.100
201.000	33.239	0.100
201.100	29.335	0.100
201.200	42.868	0.100
201.300	8.417	0.100
201.400	27.854	0.100
201.500	44.845	0.100
201.600	58.357	0.100
201.700	43.436	0.100
201.800	34.533	0.100
201.900	27.134	0.100
202.000	20.580	0.100
202.100	26.306	0.100
202.200	36.041	0.100
202.300	47.642	0.100
202.400	37.420	0.100
202.500	30.517	0.100
202.600	42.226	0.100
202.700	43.675	0.100
202.800	41.832	0.100
202.900	36.163	0.100
203.000	39.563	0.100
203.100	28.459	0.100
203.200	23.861	0.100
203.300	37.160	0.100
203.400	26.894	0.100
203.500	42.520	0.100
203.600	41.233	0.100
203.700	29.954	0.100
203.800	36.714	0.100
203.900	38.364	0.100
204.000	15.446	0.100
204.100	43.001	0.100
204.200	40.362	0.100
204.300	32.538	0.100
204.400	33.509	0.100
204.500	24.382	0.099
204.600	24.791	0.100
204.700	43.525	0.100
204.800	21.124	0.100
204.900	38.895	0.100
205.000	39.288	0.100
205.100	44.535	0.100
205.200	30.640	0.100
205.300	19.475	0.100
205.400	31.298	0.100
205.500	35.560	0.100
205.600	25.317	0.100
205.700	42.302	0.100
205.800	38.090	0.100
205.900	36.384	0.100
206.000	29.924	0.100
206.100	30.345	0.100
206.200	30.694	0.100
206.300	32.781	0.100
206.400	31.597	0.100
206.500	30.428	0.100
206.600	39.339	0.100
206.700	39.588	0.100
206.800	31.887	0.100
206.900	46.820	0.100
207.000	37.076	0.100
207.100	27.341	0.099
207.200	24.743	0.100
207.300	38.221	0.100
207.400	25.725	0.100
207.500	41.189	0.100
207.600	38.940	0.100
207.700	28.235	0.100
207.800	42.495	0.100
207.900	36.726	0.099
208.000	41.848	0.100
208.100	40.619	0.100
208.200	25.687	0.099
208.300	36.131	0.100
208.400	27.981	0.100
208.500	50.494	0.100
208.600	25.294	0.100
208.700	15.894	0.100
208.800	24.866	0.100
208.900	34.826	0.100
209.000	37.875	0.100
209.100	34.335	0.100
209.200	32.037	0.100
209.300	46.299	0.100
209.400	35.989	0.100
209.500	32.648	0.100
209.600	39.330	0.100
209.700	24.630	0.100
209.800	31.248	0.100
209.900	47.309	0.100
210.000	38.549	0.100
210.100	22.337	0.100
210.200	40.810	0.100
210.300	47.406	0.100
210.400	39.932	0.100
210.500	22.962	0.100
210.600	18.370	0.100
210.700	41.028	0.100
210.800	23.637	0.100
210.900	38.545	0.100
211.000	41.655	0.100
211.100	37.843	0.100
211.200	25.740	0.100
211.300	37.931	0.100
211.400	31.199	0.100
211.500	17.850	0.100
211.600	37.820	0.100
211.700	41.713	0.100
211.800	34.526	0.100
211.900	17.372	0.100
212.000	22.378	0.100
212.100	38.735	0.100
212.200	33.847	0.100
212.300	41.569	0.100
212.400	38.229	0.100
212.500	17.413	0.100
212.600	47.785	0.100
212.700	23.011	0.100
212.800	22.698	0.100
212.900	20.340	0.100
213.000	45.617	0.100
213.100	35.412	0.100
213.200	37.038	0.100
213.300	38.717	0.100
213.400	33.774	0.100
213.500	22.360	0.100
213.600	56.515	0.100
213.700	19.391	0.100
213.800	32.404	0.100
213.900	39.510	0.100
214.000	44.387	0.100
214.100	23.823	0.100
214.200	36.933	0.100
214.300	37.259	0.100
214.400	40.059	0.100
214.500	30.811	0.100
214.600	40.248	0.100
214.700	46.555	0.100
214.800	39.751	0.100
214.900	26.102	0.100
215.000	31.209	0.100
215.100	38.955	0.100
215.200	23.608	0.099
215.300	28.275	0.100
215.400	35.346	0.100
215.500	26.187	0.099
215.600	41.407	0.100
215.700	28.533	0.100
215.800	30.076	0.100
215.900	32.335	0.100
216.000	49.943	0.100
216.100	41.220	0.100
216.200	17.034	0.100
216.300	24.722	0.100
216.400	45.876	0.100
216.500	34.235	0.099
216.600	20.332	0.100
216.700	37.835	0.099
216.800	47.439	0.100
216.900	48.744	0.100
217.000	34.499	0.100
217.100	21.687	0.099
217.200	27.227	0.100
217.300	43.008	0.100
217.400	38.884	0.100
217.500	42.452	0.100
217.600	27.120	0.100
217.700	47.038	0.099
217.800	24.531	0.100
217.900	33.656	0.100
218.000	33.614	0.099
218.100	44.084	0.100
218.200	29.243	0.100
218.300	33.766	0.100
218.400	46.860	0.100
218.500	40.534	0.100
218.600	28.084	0.099
218.700	35.388	0.100
218.800	29.231	0.099
218.900	25.044	0.099
219.000	41.209	0.100
219.100	25.019	0.100
219.200	28.892	0.099
219.300	58.188	0.100
219.400	12.467	0.100
219.500	30.693	0.100
219.600	34.946	0.100
219.700	27.687	0.100
219.800	37.796	0.100
219.900	30.247	0.100
220.000	13.788	0.100
220.100	47.047	0.100
220.200	35.995	0.100
220.300	14.991	0.100
220.400	40.771	0.100
220.500	49.985	0.099
220.600	31.144	0.100
220.700	41.789	0.099
220.800	39.081	0.100
220.900	29.362	0.100
221.000	29.916	0.099
221.100	36.060	0.100
221.200	39.222	0.100
221.300	30.537	0.100
221.400	21.813	0.100
221.500	32.921	0.100
221.600	28.240	0.100
221.700	45.044	0.100
221.800	29.711	0.100
221.900	47.447	0.100
222.000	33.313	0.100
222.100	38.414	0.100
222.200	42.237	0.100
222.300	38.306	0.100
222.400	41.194	0.100
222.500	28.731	0.100
222.600	28.002	0.100
222.700	40.374	0.100
222.800	26.311	0.100
222.900	34.895	0.100
223.000	23.875	0.100
223.100	23.403	0.100
223.200	35.853	0.100
223.300	37.947	0.100
223.400	34.837	0.100
223.500	44.670	0.100
223.600	25.436	0.100
223.700	22.811	0.100
223.800	41.448	0.100
223.900	38.333	0.100
224.000	22.084	0.100
224.100	42.887	0.100
224.200	31.920	0.100
224.300	40.027	0.100
224.400	33.087	0.100
224.500	42.788	0.100
224.600	24.527	0.100
224.700	30.681	0.100
224.800	31.572	0.100
224.900	39.684	0.100
225.000	43.292	0.100
225.100	33.539	0.100
225.200	15.776	0.100
225.300	8.259	0.099
225.400	50.288	0.100
225.500	27.581	0.100
225.600	37.163	0.100
225.700	38.472	0.100
225.800	39.238	0.100
225.900	20.620	0.100
226.000	38.534	0.100
226.100	32.648	0.100
226.200	30.404	0.100
226.300	34.577	0.100
226.400	27.321	0.100
226.500	30.396	0.100
226.600	39.103	0.100
226.700	12.423	0.100
226.800	36.516	0.100
226.900	31.974	0.099
227.000	51.298	0.100
227.100	45.152	0.099
227.200	19.308	0.100
227.300	32.399	0.099
227.400	35.687	0.100
227.500	32.256	0.100
227.600	25.518	0.100
227.700	50.199	0.100
227.800	17.531	0.100
227.900	45.515	0.100
228.000	32.896	0.100
228.100	35.972	0.100
228.200	14.172	0.100
228.300	29.285	0.100
228.400	25.932	0.100
228.500	34.733	0.100
228.600	4.222	0.100
228.700	36.674	0.100
228.800	31.928	0.100
228.900	35.994	0.100
229.000	32.191	0.100
229.100	30.792	0.100
229.200	45.791	0.100
229.300	39.222	0.100
229.400	25.771	0.099
229.500	28.464	0.100
229.600	30.789	0.100
229.700	26.874	0.100
229.800	13.235	0.100
229.900	43.160	0.100
230.000	43.556	0.100
230.100	25.890	0.100
230.200	21.414	0.100
230.300	34.480	0.100
230.400	24.796	0.100
230.500	36.381	0.100
230.600	29.689	0.100
230.700	38.674	0.100
230.800	30.509	0.100
230.900	35.489	0.100
231.000	23.908	0.100
231.100	17.191	0.100
231.200	27.685	0.100
231.300	22.418	0.100
231.400	31.782	0.100
231.500	49.205	0.100
231.600	29.849	0.100
231.700	36.259	0.100
231.800	23.500	0.100
231.900	26.171	0.100
232.000	33.653	0.100
232.100	40.203	0.100
232.200	29.139	0.100
232.300	14.879	0.100
232.400	41.593	0.100
232.500	28.263	0.100
232.600	59.668	0.100
232.700	31.132	0.100
232.800	36.331	0.100
232.900	10.501	0.100
233.000	26.591	0.100
233.100	23.144	0.100
233.200	38.320	0.100
233.300	60.791	0.100
233.400	50.105	0.100
233.500	21.727	0.100
233.600	26.817	0.100
233.700	32.574	0.100
233.800	29.109	0.100
233.900	26.942	0.100
234.000	35.963	0.100
234.100	44.121	0.100
234.200	34.125	0.100
234.300	28.466	0.100
234.400	26.598	0.100
234.500	40.402	0.100
234.600	28.740	0.100
234.700	33.283	0.100
234.800	26.802	0.100
234.900	14.414	0.099
235.000	24.176	0.100
235.100	44.268	0.100
235.200	33.717	0.100
235.300	27.894	0.100
235.400	16.100	0.100
235.500	40.668	0.100
235.600	37.067	0.100
235.700	33.902	0.100
235.800	30.751	0.100
235.900	44.934	0.100
236.000	49.517	0.100
236.100	29.267	0.100
236.200	39.395	0.100
236.300	25.620	0.100
236.400	35.992	0.100
236.500	30.651	0.100
236.600	20.469	0.100
236.700	43.290	0.100
236.800	16.688	0.100
236.900	25.019	0.100
237.000	50.190	0.100
237.100	29.325	0.099
237.200	29.069	0.100
237.300	4.036	0.100
237.400	39.196	0.100
237.500	28.109	0.100
237.600	16.510	0.099
237.700	26.365	0.100
237.800	40.575	0.100
237.900	36.671	0.100
238.000	24.673	0.100
238.100	44.479	0.100
238.200	34.371	0.100
238.300	31.937	0.100
238.400	38.931	0.100
238.500	19.935	0.100
238.600	37.318	0.100
238.700	40.470	0.100
238.800	41.660	0.100
238.900	27.442	0.100
239.000	30.581	0.100
239.100	35.614	0.100
239.200	23.644	0.100
239.300	33.536	0.100
239.400	25.315	0.100
239.500	33.714	0.100
239.600	45.724	0.100
239.700	33.935	0.100
239.800	23.641	0.100
239.900	21.750	0.100
240.000	37.347	0.100
240.100	24.844	0.100
240.200	18.116	0.100
240.300	52.826	0.100
240.400	14.650	0.100
240.500	35.337	0.100
240.600	37.432	0.100
240.700	23.638	0.100
240.800	25.157	0.100
240.900	17.420	0.100
241.000	-0.411	0.100
241.100	20.444	0.100
241.200	33.651	0.100
241.300	10.686	0.100
241.400	27.537	0.100
241.500	15.733	0.100
241.600	4.005	0.100
241.700	27.380	0.100
241.800	18.080	0.100
241.900	17.786	0.100
242.000	6.891	0.100
242.100	5.059	0.100
242.200	-1.316	0.100
242.300	12.779	0.100
242.400	-8.255	0.100
242.500	7.442	0.099
242.600	11.451	0.100
242.700	5.196	0.100
242.800	-11.016	0.100
242.900	16.994	0.100
243.000	7.058	0.100
243.100	-0.381	0.100
243.200	-1.725	0.100
243.300	-10.116	0.100
243.400	0.392	0.100
243.500	-7.358	0.100
243.600	-12.188	0.099
243.700	7.434	0.100
243.800	-3.764	0.100
243.900	9.478	0.099
244.000	13.757	0.100
244.100	-3.203	0.100
244.200	5.308	0.100
244.300	-0.398	0.100
244.400	-8.105	0.100
244.500	16.734	0.100
244.600	-4.178	0.100
244.700	4.798	0.100
244.800	-8.238	0.099
244.900	11.893	0.100
245.000	6.449	0.100
245.100	-23.855	0.100
245.200	-3.086	0.100
245.300	-17.268	0.100
245.400	-11.589	0.100
245.500	4.927	0.100
245.600	13.382	0.100
245.700	-23.447	0.100
245.800	-5.341	0.100
245.900	2.500	0.100
246.000	-12.274	0.100
246.100	18.072	0.100
246.200	-2.947	0.100
246.300	1.054	0.100
246.400	0.630	0.100
246.500	-10.695	0.100
246.600	2.811	0.100
246.700	-23.367	0.099
246.800	-2.354	0.100
246.900	-12.164	0.100
247.000	13.104	0.100
247.100	-2.492	0.100
247.200	10.771	0.100
247.300	-19.352	0.100
247.400	-17.939	0.100
247.500	11.838	0.100
247.600	0.334	0.100
247.700	4.530	0.100
247.800	-4.856	0.100
247.900	-5.896	0.100
248.000	-3.206	0.100
248.100	-12.728	0.100
248.200	-4.460	0.100
248.300	4.673	0.100
248.400	-4.296	0.100
248.500	8.719	0.100
248.600	-2.029	0.099
248.700	-10.109	0.100
248.800	-7.354	0.100
248.900	-2.037	0.100
249.000	-11.685	0.099
249.100	-13.193	0.100
249.200	0.068	0.100
249.300	-5.136	0.100
249.400	1.150	0.100
249.500	0.927	0.100
249.600	0.248	0.100
249.700	-0.951	0.099
249.800	21.423	0.100
249.900	-16.169	0.100
250.000	-24.024	0.099
250.100	8.862	0.100
250.200	7.641	0.100
250.300	4.717	0.100
250.400	-3.578	0.100
250.500	-5.058	0.100
250.600	-4.485	0.100
250.700	7.878	0.100
250.800	-1.557	0.100
250.900	5.645	0.100
251.000	-7.456	0.100
251.100	0.608	0.099
251.200	4.832	0.100
251.300	-12.855	0.099
251.400	-12.794	0.100
251.500	6.470	0.099
251.600	-18.534	0.100
251.700	-8.500	0.100
251.800	11.544	0.100
251.900	-6.381	0.100
252.000	-8.401	0.100
252.100	9.412	0.100
252.200	-6.271	0.100
252.300	3.919	0.100
252.400	-4.412	0.100
252.500	10.222	0.100
252.600	-6.581	0.100
252.700	-20.565	0.100
252.800	0.730	0.100
252.900	8.010	0.100
253.000	-13.028	0.100
253.100	0.857	0.100
253.200	1.513	0.100
253.300	1.553	0.100
253.400	-11.964	0.100
253.500	-30.131	0.099
253.600	-11.758	0.100
253.700	1.642	0.100
253.800	-6.418	0.099
253.900	3.709	0.100
254.000	-0.388	0.100
254.100	-4.305	0.100
254.200	-10.257	0.100
254.300	-5.724	0.100
254.400	-3.223	0.100
254.500	-12.229	0.100
254.600	-7.186	0.100
254.700	-19.511	0.100
254.800	-16.107	0.100
254.900	-5.078	0.100
255.000	-5.563	0.100
255.100	-5.954	0.100
255.200	-20.825	0.100
255.300	14.463	0.100
255.400	9.444	0.100
255.500	-11.088	0.100
255.600	0.616	0.100
255.700	-6.463	0.100
255.800	-27.299	0.100
255.900	2.835	0.099
256.000	-3.936	0.099
256.100	-6.018	0.100
256.200	3.046	0.100
256.300	4.805	0.100
256.400	-12.881	0.100
256.500	-2.338	0.100
256.600	5.754	0.100
256.700	-7.846	0.100
256.800	-4.843	0.100
256.900	-2.376	0.100
257.000	-10.821	0.100
257.100	-7.914	0.100
257.200	-3.437	0.100
257.300	-3.611	0.100
257.400	1.668	0.100
257.500	-9.855	0.100
257.600	1.382	0.100
257.700	23.360	0.100
257.800	-18.429	0.100
257.900	8.483	0.100
258.000	-4.819	0.100
258.100	-9.100	0.100
258.200	-22.757	0.099
258.300	7.699	0.100
258.400	-6.363	0.099
258.500	-2.886	0.100
258.600	-17.536	0.100
258.700	-12.734	0.100
258.800	-15.045	0.099
258.900	7.534	0.100
259.000	-24.958	0.100
259.100	8.907	0.099
259.200	-2.136	0.100
259.300	-0.685	0.099
259.400	10.423	0.100
259.500	-8.287	0.100
259.600	-5.101	0.100
259.700	-16.618	0.100
259.800	-1.066	0.100
259.900	-10.595	0.100
260.000	-1.816	0.100
260.100	-23.645	0.100
260.200	1.402	0.100
260.300	-14.594	0.099
260.400	11.888	0.099
260.500	6.728	0.100
260.600	-22.037	0.099
260.700	-11.443	0.100
260.800	0.741	0.100
260.900	-13.402	0.100
261.000	-4.578	0.100
261.100	-17.220	0.099
261.200	-4.368	0.100
261.300	-12.518	0.100
261.400	-14.751	0.100
261.500	-22.489	0.100
261.600	-4.436	0.100
261.700	1.010	0.100
261.800	-16.071	0.100
261.900	-3.083	0.100
262.000	-4.643	0.099
262.100	-1.224	0.100
262.200	0.758	0.100
262.300	-8.559	0.100
262.400	-29.314	0.099
262.500	7.106	0.100
262.600	-11.547	0.099
262.700	-11.505	0.099
262.800	-5.883	0.100
262.900	2.491	0.100
263.000	-13.108	0.100
263.100	-19.550	0.099
263.200	-16.987	0.099
263.300	1.941	0.099
263.400	-1.903	0.100
263.500	-21.612	0.100
263.600	-18.186	0.100
263.700	-10.043	0.100
263.800	2.575	0.100
263.900	-3.641	0.099
264.000	-15.383	0.100
264.100	1.720	0.100
264.200	-14.223	0.100
264.300	-18.246	0.100
264.400	-6.851	0.100
264.500	-5.872	0.100
264.600	-4.591	0.099
264.700	-4.913	0.100
264.800	-21.767	0.100
264.900	-24.722	0.100
265.000	-9.254	0.100
265.100	9.197	0.100
265.200	-18.088	0.100
265.300	-11.404	0.099
265.400	-11.206	0.100
265.500	-6.346	0.100
265.600	-6.518	0.100
265.700	-1.487	0.100
265.800	-5.237	0.099
265.900	-28.512	0.100
266.000	-2.714	0.100
266.100	4.477	0.100
266.200	-8.003	0.099
266.300	-19.292	0.099
266.400	-8.848	0.100
266.500	-8.515	0.100
266.600	-33.381	0.100
266.700	-13.490	0.099
266.800	-17.863	0.099
266.900	-13.964	0.099
267.000	4.205	0.100
267.100	-6.487	0.100
267.200	-19.615	0.100
267.300	-11.403	0.099
267.400	-4.782	0.099
267.500	-26.728	0.099
267.600	-34.898	0.099
267.700	-2.834	0.099
267.800	-21.604	0.100
267.900	-9.851	0.100
268.000	-12.990	0.100
268.100	-14.517	0.099
268.200	-12.992	0.099
268.300	-5.213	0.099
268.400	-30.275	0.100
268.500	0.068	0.099
268.600	-9.692	0.099
268.700	-0.467	0.100
268.800	-16.798	0.099
268.900	-8.298	0.099
269.000	-6.894	0.100
269.100	-24.494	0.099
269.200	-19.522	0.099
269.300	-2.450	0.099
269.400	2.255	0.100
269.500	-25.296	0.099
269.600	7.757	0.099
269.700	-16.634	0.100
269.800	-29.368	0.100
269.900	-9.520	0.099
270.000	-7.727	0.100
270.100	-5.696	0.099
270.200	-7.765	0.100
270.300	-6.012	0.099
270.400	-17.869	0.099
270.500	-11.081	0.100
270.600	-21.403	0.100
270.700	-24.690	0.099
270.800	4.574	0.099
270.900	-10.945	0.099
271.000	-36.714	0.099
271.100	-0.070	0.100
271.200	-21.454	0.100
271.300	-9.566	0.100
271.400	0.937	0.100
271.500	-33.416	0.099
271.600	-19.328	0.099
271.700	4.200	0.099
271.800	-2.259	0.099
271.900	-7.115	0.100
272.000	-5.982	0.100
272.100	-26.534	0.099
272.200	-39.923	0.099
272.300	-10.924	0.099
272.400	4.864	0.099
272.500	-20.280	0.099
272.600	-33.962	0.099
272.700	-4.089	0.099
272.800	-23.518	0.100
272.900	1.472	0.099
273.000	-16.297	0.099
273.100	-8.121	0.099
273.200	-13.601	0.100
273.300	-20.787	0.100
273.400	-4.846	0.099
273.500	3.591	0.100
273.600	-18.733	0.100
273.700	-22.753	0.100
273.800	-26.536	0.099
273.900	2.887	0.099
274.000	-18.479	0.099
274.100	-27.427	0.099
274.200	-11.393	0.099
274.300	3.240	0.100
274.400	-12.530	0.099
274.500	4.263	0.099
274.600	-10.896	0.099
274.700	-15.803	0.099
274.800	-21.763	0.100
274.900	-19.590	0.099
275.000	-14.882	0.100
275.100	10.004	0.100
275.200	-8.636	0.100
275.300	-13.246	0.100
275.400	-31.291	0.099
275.500	0.594	0.100
275.600	-7.002	0.100
275.700	-3.193	0.100
275.800	1.270	0.100
275.900	-17.533	0.100
276.000	-6.064	0.100
276.100	-3.211	0.099
276.200	-10.116	0.100
276.300	-4.495	0.099
276.400	-37.959	0.099
276.500	-5.866	0.099
276.600	-11.891	0.099
276.700	-10.060	0.099
276.800	-6.103	0.099
276.900	-25.841	0.099
277.000	-20.133	0.099
277.100	-10.163	0.099
277.200	-1.286	0.099
277.300	-24.842	0.099
277.400	5.277	0.100
277.500	-5.057	0.100
277.600	-8.675	0.100
277.700	-5.507	0.100
277.800	-16.975	0.099
277.900	-12.775	0.100
278.000	-12.884	0.100
278.100	-11.632	0.100
278.200	-21.004	0.100
278.300	-20.965	0.100
278.400	-16.539	0.100
278.500	-33.252	0.099
278.600	-17.372	0.100
278.700	-21.675	0.099
278.800	-1.641	0.099
278.900	-9.672	0.100
279.000	3.992	0.099
279.100	-14.969	0.100
279.200	-8.905	0.099
279.300	-15.029	0.100
279.400	-27.745	0.100
279.500	-16.236	0.099
279.600	-26.183	0.100
279.700	-10.782	0.100
279.800	-9.486	0.100
279.900	-12.300	0.100
280.000	-13.085	0.100
280.100	-13.676	0.099
280.200	3.573	0.100
280.300	5.613	0.099
280.400	-30.552	0.099
280.500	-13.469	0.099
280.600	-13.543	0.099
280.700	-34.755	0.099
280.800	-9.936	0.099
280.900	-4.833	0.099
281.000	-12.544	0.099
281.100	-19.211	0.100
281.200	-10.211	0.099
281.300	-21.174	0.100
281.400	-1.521	0.100
281.500	-8.595	0.099
281.600	-20.809	0.099
281.700	-12.417	0.099
281.800	-8.796	0.099
281.900	-16.150	0.100
282.000	-21.713	0.099
282.100	-13.511	0.100
282.200	-12.285	0.100
282.300	-22.295	0.099
282.400	-9.262	0.100
282.500	-22.515	0.100
282.600	-21.294	0.100
282.700	-37.437	0.100
282.800	-5.874	0.100
282.900	0.375	0.100
283.000	-1.220	0.100
283.100	-25.520	0.099
283.200	-0.933	0.100
283.300	-13.973	0.099
283.400	-25.288	0.100
283.500	0.892	0.099
283.600	-11.679	0.100
283.700	-8.068	0.100
283.800	-3.745	0.100
283.900	-28.033	0.100
284.000	-10.579	0.100
284.100	-15.640	0.099
284.200	-2.566	0.100
284.300	-34.674	0.099
284.400	-14.301	0.099
284.500	-13.028	0.099
284.600	-14.821	0.099
284.700	-9.700	0.099
284.800	-0.456	0.099
284.900	-14.623	0.100
285.000	-17.664	0.099
285.100	-7.261	0.100
285.200	-17.730	0.099
285.300	-9.686	0.099
285.400	-8.889	0.099
285.500	-3.134	0.100
285.600	-8.407	0.100
285.700	-21.312	0.100
285.800	-4.787	0.099
285.900	-25.095	0.100
286.000	5.028	0.099
286.100	-17.692	0.100
286.200	-13.972	0.100
286.300	-14.898	0.099
286.400	-12.821	0.099
286.500	-0.625	0.099
286.600	-22.009	0.099
286.700	-26.210	0.099
286.800	-5.820	0.099
286.900	-6.327	0.100
287.000	-13.699	0.100
287.100	3.524	0.100
287.200	-13.981	0.100
287.300	-12.006	0.099
287.400	-24.148	0.100
287.500	-5.238	0.100
287.600	-5.856	0.100
287.700	-10.180	0.100
287.800	-28.267	0.100
287.900	-13.424	0.100
288.000	-11.705	0.100
288.100	-13.957	0.100
288.200	-17.192	0.100
288.300	-16.151	0.100
288.400	-12.875	0.099
288.500	-19.231	0.100
288.600	-5.979	0.099
288.700	-18.107	0.099
288.800	-0.317	0.099
288.900	-19.396	0.100
289.000	-13.392	0.099
289.100	-21.857	0.099
289.200	-8.157	0.099
289.300	-20.727	0.100
289.400	2.602	0.100
289.500	-15.212	0.100
289.600	-36.597	0.099
289.700	-23.018	0.099
289.800	-5.690	0.099
289.900	-29.527	0.099
290.000	-7.453	0.099
290.100	-29.126	0.100
290.200	-7.038	0.100
290.300	-13.916	0.099
290.400	-10.490	0.099
290.500	-25.033	0.099
290.600	-13.035	0.100
290.700	-13.784	0.100
290.800	-9.736	0.099
290.900	-9.811	0.099
291.000	-15.292	0.099
291.100	-8.508	0.099
291.200	1.106	0.099
291.300	2.101	0.100
291.400	-31.982	0.099
291.500	6.295	0.099
291.600	-29.198	0.099
291.700	2.421	0.099
291.800	-13.966	0.100
291.900	-6.610	0.100
292.000	0.195	0.100
292.100	-10.449	0.099
292.200	-25.387	0.100
292.300	-13.281	0.099
292.400	-22.517	0.099
292.500	-13.021	0.099
292.600	-11.231	0.099
292.700	-0.719	0.100
292.800	-21.860	0.100
292.900	3.740	0.099
293.000	-6.695	0.100
293.100	-13.888	0.100
293.200	-23.478	0.100
293.300	-5.488	0.099
293.400	-11.812	0.100
293.500	-11.988	0.099
293.600	-15.360	0.099
293.700	-18.074	0.099
293.800	-21.848	0.099
293.900	-21.739	0.099
294.000	-16.826	0.099
294.100	4.597	0.100
294.200	-6.473	0.100
294.300	-9.727	0.100
294.400	-29.228	0.099
294.500	-8.678	0.100
294.600	-31.419	0.099
294.700	-7.518	0.100
294.800	-44.271	0.099
294.900	-11.136	0.099
295.000	-14.103	0.099
295.100	-10.781	0.099
295.200	-11.934	0.099
295.300	-23.000	0.099
295.400	-14.809	0.099
295.500	-17.851	0.099
295.600	5.251	0.099
295.700	-3.110	0.100
295.800	-18.385	0.099
295.900	-7.212	0.100
296.000	-25.588	0.099
296.100	-3.716	0.100
296.200	-32.081	0.099
296.300	-23.576	0.100
296.400	-19.864	0.099
296.500	1.135	0.099
296.600	-11.778	0.100
296.700	-25.527	0.099
296.800	-8.620	0.099
296.900	-10.137	0.100
297.000	-5.065	0.099
297.100	-15.788	0.100
297.200	-32.255	0.100
297.300	-13.857	0.099
297.400	-14.655	0.099
297.500	-11.740	0.099
297.600	-23.030	0.099
297.700	-12.946	0.099
297.800	-1.200	0.099
297.900	-27.507	0.099
298.000	-28.271	0.100
298.100	-5.765	0.099
298.200	-16.124	0.099
298.300	0.161	0.099
298.400	-11.686	0.100
298.500	-25.689	0.100
298.600	-17.714	0.100
298.700	-6.867	0.099
298.800	-25.236	0.100
298.900	-5.299	0.100
299.000	-8.646	0.099
299.100	-12.617	0.099
299.200	-7.263	0.100
299.300	-15.104	0.099
299.400	-24.363	0.100
299.500	7.740	0.099
299.600	-22.655	0.099
299.700	-19.218	0.100
299.800	-12.165	0.100
299.900	-12.627	0.099
300.000	-18.712	0.099
300.100	-1.076	0.100
300.200	-28.337	0.100
300.300	-8.075	0.100
300.400	-18.096	0.099
300.500	-13.009	0.099
300.600	-19.994	0.099
300.700	-21.610	0.100
300.800	-23.171	0.099
300.900	-21.335	0.100
301.000	1.173	0.100
301.100	-15.583	0.100
301.200	-25.465	0.099
301.300	-9.286	0.099
301.400	-15.926	0.099
301.500	-16.622	0.100
301.600	-14.075	0.099
301.700	-20.842	0.099
301.800	2.091	0.099
301.900	-22.952	0.099
302.000	-14.302	0.099
302.100	-32.950	0.099
302.200	-7.236	0.100
302.300	-14.431	0.099
302.400	-13.472	0.100
302.500	-16.970	0.100
302.600	-20.422	0.099
302.700	-6.853	0.099
302.800	-9.539	0.100
302.900	-9.192	0.099
303.000	-10.573	0.100
303.100	-21.301	0.099
303.200	-23.613	0.099
303.300	-2.828	0.100
303.400	-1.039	0.100
303.500	-17.866	0.099
303.600	-27.631	0.099
303.700	-11.912	0.100
303.800	-8.489	0.100
303.900	-10.276	0.100
304.000	-21.984	0.100
304.100	-7.826	0.099
304.200	-29.527	0.100
304.300	-12.938	0.099
304.400	-19.556	0.099
304.500	-0.272	0.099
304.600	-24.650	0.100
304.700	-7.774	0.100
304.800	-6.897	0.100
304.900	-21.068	0.100
305.000	-9.381	0.100
305.100	-11.016	0.099
305.200	-18.288	0.100
305.300	-13.895	0.100
305.400	-5.638	0.100
305.500	-9.485	0.100
305.600	-9.931	0.099
305.700	-12.048	0.099
305.800	-20.183	0.100
305.900	-17.605	0.100
306.000	-19.576	0.099
306.100	-23.049	0.100
306.200	-16.818	0.100
306.300	-8.138	0.100
306.400	2.395	0.100
306.500	-9.921	0.099
306.600	-14.184	0.099
306.700	-16.297	0.099
306.800	-23.077	0.099
306.900	-2.199	0.099
307.000	-25.899	0.099
307.100	-29.401	0.099
307.200	-21.664	0.100
307.300	3.188	0.099
307.400	-7.204	0.099
307.500	-23.048	0.099
307.600	-8.667	0.100
307.700	-11.630	0.100
307.800	-12.439	0.100
307.900	-8.518	0.100
308.000	-21.553	0.100
308.100	5.356	0.100
308.200	-14.826	0.099
308.300	-4.949	0.099
308.400	-15.435	0.099
308.500	-14.672	0.100
308.600	-16.723	0.100
308.700	-9.604	0.100
308.800	3.210	0.100
308.900	-20.116	0.099
309.000	-13.950	0.100
309.100	-6.674	0.099
309.200	3.143	0.100
309.300	-10.409	0.100
309.400	-6.610	0.099
309.500	-8.799	0.100
309.600	-23.406	0.100
309.700	-36.237	0.100
309.800	-4.534	0.099
309.900	-15.712	0.099
310.000	-7.944	0.100
310.100	-18.311	0.100
310.200	-26.531	0.099
310.300	-14.998	0.100
310.400	-11.195	0.100
310.500	-0.841	0.100
310.600	-20.328	0.100
310.700	-12.801	0.099
310.800	-1.997	0.100
310.900	-14.931	0.099
311.000	-7.549	0.099
311.100	-7.219	0.099
311.200	-12.888	0.100
311.300	-22.692	0.100
311.400	-24.996	0.100
311.500	-13.645	0.100
311.600	20.613	0.099
311.700	-16.645	0.100
311.800	-10.689	0.100
311.900	-16.127	0.100
312.000	-13.678	0.100
312.100	-2.912	0.099
312.200	0.098	0.100
312.300	-5.854	0.100
312.400	-17.842	0.100
312.500	-9.762	0.099
312.600	-20.378	0.100
312.700	-10.804	0.099
312.800	-11.458	0.100
312.900	-15.458	0.100
313.000	-5.652	0.100
313.100	-14.270	0.100
313.200	-13.728	0.099
313.300	-19.340	0.099
313.400	4.600	0.099
313.500	-32.707	0.099
313.600	-7.632	0.100
313.700	-11.859	0.099
313.800	-2.577	0.100
313.900	-6.267	0.100
314.000	-11.466	0.099
314.100	-28.129	0.100
314.200	-19.707	0.100
314.300	-8.886	0.100
314.400	-20.368	0.099
314.500	-0.257	0.099
314.600	-21.717	0.099
314.700	-30.129	0.099
314.800	-0.598	0.099
314.900	-18.894	0.099
315.000	-30.927	0.099
315.100	-25.507	0.099
315.200	-21.039	0.099
315.300	-11.499	0.099
315.400	-11.258	0.099
315.500	-16.421	0.100
315.600	3.361	0.099
315.700	1.084	0.100
315.800	-28.396	0.099
315.900	-10.574	0.099
316.000	-13.751	0.099
316.100	-30.295	0.099
316.200	-5.664	0.099
316.300	-13.601	0.099
316.400	-10.023	0.100
316.500	-11.639	0.100
316.600	-6.812	0.099
316.700	-15.915	0.099
316.800	-9.376	0.099
316.900	-15.933	0.100
317.000	-5.985	0.100
317.100	-21.942	0.099
317.200	-13.978	0.100
317.300	-20.496	0.099
317.400	-8.771	0.099
317.500	-4.339	0.099
317.600	-4.947	0.099
317.700	-31.602	0.100
317.800	-4.053	0.099
317.900	-10.343	0.100
318.000	-29.611	0.099
318.100	-6.131	0.100
318.200	-17.053	0.100
318.300	3.195	0.100
318.400	-20.160	0.100
318.500	-7.768	0.100
318.600	-14.872	0.100
318.700	-17.586	0.099
318.800	3.928	0.099
318.900	-24.539	0.100
319.000	-12.897	0.100
319.100	-16.023	0.099
319.200	-31.447	0.099
319.300	-9.772	0.099
319.400	-6.235	0.099
319.500	-8.416	0.100
319.600	-4.166	0.099
319.700	-19.618	0.099
319.800	3.330	0.099
319.900	-3.199	0.099
320.000	-20.292	0.099
320.100	-26.654	0.100
320.200	-15.471	0.099
320.300	-19.468	0.099
320.400	-6.287	0.099
320.500	8.858	0.099
320.600	-14.895	0.100
320.700	-10.141	0.100
320.800	-4.101	0.100
320.900	-21.113	0.099
321.000	-15.998	0.100
321.100	-7.331	0.099
321.200	-17.033	0.100
321.300	-5.281	0.100
321.400	-18.449	0.100
321.500	-24.875	0.100
321.600	-3.081	0.100
321.700	-20.934	0.099
321.800	-18.404	0.100
321.900	-9.521	0.099
322.000	-17.106	0.099
322.100	-9.374	0.099
322.200	0.133	0.100
322.300	-2.453	0.100
322.400	-11.338	0.099
322.500	-20.141	0.099
322.600	-29.311	0.100
322.700	-15.235	0.100
322.800	-5.370	0.099
322.900	-9.703	0.099
323.000	-35.469	0.099
323.100	-21.746	0.100
323.200	-0.562	0.100
323.300	-7.865	0.100
323.400	-16.636	0.100
323.500	-7.030	0.099
323.600	-3.125	0.099
323.700	-14.867	0.099
323.800	-19.075	0.100
323.900	-11.576	0.099
324.000	-9.806	0.099
324.100	-19.705	0.100
324.200	-4.048	0.099
324.300	-11.340	0.099
324.400	-2.816	0.099
324.500	-7.423	0.099
324.600	-20.220	0.100
324.700	-24.493	0.099
324.800	-5.868	0.100
324.900	-0.225	0.100
325.000	-11.367	0.099
325.100	-9.736	0.099
325.200	-5.938	0.100
325.300	1.642	0.099
325.400	-13.517	0.099
325.500	-12.852	0.100
325.600	-17.685	0.099
325.700	1.725	0.100
325.800	-5.956	0.099
325.900	4.345	0.100
326.000	-8.135	0.100
326.100	0.522	0.100
326.200	-1.941	0.099
326.300	-26.461	0.100
326.400	-11.444	0.099
326.500	-6.212	0.099
326.600	-26.284	0.100
326.700	-18.825	0.099
326.800	2.446	0.100
326.900	-19.893	0.100
327.000	-12.170	0.100
327.100	7.665	0.100
327.200	-10.806	0.100
327.300	-29.375	0.100
327.400	-12.660	0.099
327.500	-15.500	0.099
327.600	-5.806	0.100
327.700	-28.450	0.100
327.800	-15.482	0.100
327.900	-6.034	0.100
328.000	-24.644	0.099
328.100	1.491	0.100
328.200	-19.417	0.100
328.300	-3.574	0.099
328.400	-8.227	0.099
328.500	-12.826	0.100
328.600	3.328	0.100
328.700	-15.416	0.100
328.800	-5.810	0.099
328.900	-10.681	0.100
329.000	-12.389	0.100
329.100	-5.222	0.099
329.200	-15.703	0.099
329.300	-20.024	0.099
329.400	-13.858	0.100
329.500	-14.690	0.099
329.600	-7.566	0.100
329.700	-31.419	0.099
329.800	-7.981	0.099
329.900	-17.927	0.099
330.000	1.314	0.099
330.100	-21.277	0.099
330.200	-4.248	0.099
330.300	-2.983	0.100
330.400	-9.273	0.100
330.500	-13.786	0.099
330.600	0.453	0.099
330.700	-5.917	0.099
330.800	16.061	0.099
330.900	-2.989	0.099
331.000	13.181	0.099
331.100	-12.287	0.099
331.200	-4.082	0.100
331.300	13.887	0.099
331.400	0.271	0.099
331.500	5.451	0.099
331.600	-16.761	0.099
331.700	13.109	0.099
331.800	17.941	0.099
331.900	-0.723	0.099
332.000	21.748	0.099
332.100	29.605	0.099
332.200	3.416	0.099
332.300	9.822	0.100
332.400	20.438	0.099
332.500	-6.771	0.099
332.600	10.753	0.099
332.700	10.697	0.099
332.800	13.874	0.099
332.900	10.778	0.099
333.000	2.810	0.099
333.100	15.267	0.099
333.200	11.293	0.100
333.300	25.976	0.099
333.400	24.731	0.099
333.500	9.104	0.099
333.600	10.528	0.099
333.700	10.951	0.099
333.800	16.498	0.099
333.900	-4.153	0.099
334.000	5.626	0.100
334.100	21.225	0.099
334.200	15.613	0.099
334.300	12.451	0.099
334.400	7.401	0.099
334.500	-5.039	0.099
334.600	4.630	0.100
334.700	16.814	0.099
334.800	17.810	0.100
334.900	16.343	0.099
335.000	2.282	0.099
335.100	6.600	0.099
335.200	25.224	0.099
335.300	8.518	0.099
335.400	11.680	0.099
335.500	-8.738	0.099
335.600	9.755	0.099
335.700	8.811	0.099
335.800	9.710	0.100
335.900	0.190	0.099
336.000	-5.205	0.099
336.100	18.759	0.099
336.200	7.137	0.099
336.300	1.991	0.100
336.400	-5.065	0.099
336.500	6.189	0.100
336.600	0.811	0.099
336.700	-5.318	0.099
336.800	15.549	0.099
336.900	14.511	0.100
337.000	6.149	0.099
337.100	-5.936	0.099
337.200	4.626	0.099
337.300	9.879	0.100
337.400	12.937	0.099
337.500	3.661	0.099
337.600	15.217	0.099
337.700	12.664	0.099
337.800	-2.528	0.099
337.900	16.098	0.099
338.000	9.410	0.099
338.100	17.677	0.099
338.200	2.852	0.099
338.300	13.878	0.099
338.400	13.570	0.100
338.500	7.330	0.100
338.600	2.181	0.099
338.700	7.583	0.099
338.800	11.970	0.099
338.900	17.776	0.099
339.000	16.982	0.100
339.100	3.416	0.099
339.200	3.229	0.100
339.300	5.236	0.099
339.400	14.244	0.099
339.500	6.423	0.099
339.600	10.375	0.099
339.700	-0.764	0.099
339.800	20.742	0.100
339.900	1.651	0.100
340.000	12.331	0.099
340.100	20.182	0.099
340.200	18.537	0.099
340.300	1.109	0.099
340.400	4.376	0.099
340.500	31.854	0.100
340.600	23.447	0.099
340.700	0.803	0.100
340.800	24.441	0.100
340.900	12.051	0.100
341.000	18.720	0.099
341.100	20.875	0.100
341.200	2.984	0.099
341.300	10.444	0.099
341.400	6.589	0.099
341.500	16.814	0.100
341.600	22.430	0.099
341.700	23.106	0.099
341.800	3.154	0.099
341.900	19.440	0.099
342.000	7.367	0.099
342.100	24.992	0.100
342.200	34.133	0.099
342.300	17.539	0.100
342.400	3.883	0.099
342.500	23.133	0.099
342.600	17.147	0.099
342.700	18.484	0.099
342.800	28.091	0.099
342.900	24.254	0.099
343.000	29.459	0.100
343.100	25.512	0.100
343.200	17.159	0.099
343.300	22.869	0.099
343.400	29.407	0.099
343.500	20.403	0.099
343.600	13.908	0.099
343.700	20.256	0.100
343.800	28.668	0.099
343.900	9.650	0.099
344.000	22.284	0.100
344.100	30.081	0.100
344.200	13.337	0.099
344.300	37.026	0.099
344.400	14.408	0.099
344.500	22.158	0.099
344.600	37.572	0.100
344.700	15.584	0.100
344.800	38.119	0.099
344.900	25.247	0.099
345.000	30.019	0.099
345.100	21.022	0.099
345.200	14.810	0.099
345.300	39.943	0.099
345.400	30.779	0.099
345.500	32.053	0.099
345.600	18.972	0.099
345.700	30.784	0.099
345.800	21.023	0.099
345.900	32.217	0.099
346.000	35.281	0.100
346.100	38.110	0.100
346.200	21.685	0.099
346.300	25.783	0.100
346.400	12.739	0.100
346.500	31.458	0.100
346.600	39.745	0.099
346.700	40.363	0.099
346.800	35.638	0.099
346.900	18.348	0.100
347.000	46.616	0.099
347.100	51.982	0.099
347.200	43.418	0.099
347.300	34.092	0.100
347.400	39.429	0.099
347.500	33.326	0.100
347.600	27.997	0.099
347.700	37.354	0.100
347.800	23.998	0.099
347.900	46.094	0.099
348.000	32.961	0.099
348.100	38.653	0.100
348.200	24.953	0.099
348.300	40.854	0.099
348.400	48.737	0.100
348.500	32.184	0.099
348.600	43.133	0.099
348.700	41.605	0.099
348.800	41.877	0.099
348.900	38.927	0.100
349.000	35.964	0.099
349.100	28.029	0.099
349.200	41.800	0.099
349.300	22.705	0.099
349.400	38.857	0.099
349.500	24.668	0.099
349.600	45.665	0.099
349.700	45.555	0.099
349.800	44.603	0.099
349.900	47.347	0.099
350.000	37.456	0.099
350.100	47.702	0.099
350.200	32.595	0.099
350.300	46.855	0.099
350.400	34.417	0.099
350.500	37.143	0.099
350.600	30.530	0.099
350.700	39.896	0.100
350.800	32.829	0.100
350.900	46.501	0.099
351.000	27.605	0.099
351.100	25.945	0.099
351.200	38.723	0.099
351.300	58.214	0.099
351.400	28.701	0.099
351.500	36.469	0.100
351.600	32.785	0.099
351.700	32.565	0.099
351.800	34.143	0.099
351.900	49.544	0.099
352.000	51.868	0.099
352.100	23.117	0.100
352.200	33.710	0.099
352.300	46.616	0.099
352.400	42.819	0.099
352.500	9.017	0.100
352.600	44.984	0.099
352.700	56.635	0.100
352.800	41.602	0.099
352.900	29.644	0.099
353.000	48.577	0.099
353.100	32.678	0.100
353.200	44.010	0.100
353.300	20.505	0.099
353.400	40.180	0.099
353.500	54.623	0.099
353.600	28.838	0.099
353.700	50.188	0.099
353.800	28.025	0.099
353.900	19.477	0.099
354.000	54.040	0.099
354.100	38.357	0.099
354.200	51.320	0.100
354.300	51.315	0.099
354.400	49.564	0.099
354.500	27.383	0.100
354.600	32.645	0.100
354.700	44.161	0.099
354.800	39.758	0.099
354.900	37.755	0.099
355.000	38.182	0.100
355.100	13.605	0.100
355.200	59.090	0.099
355.300	27.606	0.099
355.400	36.246	0.100
355.500	33.818	0.099
355.600	42.830	0.099
355.700	55.402	0.100
355.800	20.691	0.099
355.900	54.356	0.099
356.000	46.317	0.099
356.100	45.781	0.100
356.200	35.524	0.100
356.300	39.213	0.100
356.400	42.640	0.100
356.500	34.019	0.100
356.600	22.581	0.099
356.700	47.007	0.100
356.800	48.477	0.099
356.900	26.294	0.099
357.000	43.693	0.100
357.100	40.036	0.099
357.200	28.972	0.100
357.300	49.731	0.100
357.400	32.193	0.099
357.500	23.556	0.099
357.600	44.251	0.100
357.700	51.252	0.100
357.800	34.196	0.100
357.900	46.207	0.100
358.000	39.190	0.099
358.100	49.247	0.100
358.200	24.888	0.100
358.300	53.326	0.100
358.400	34.802	0.100
358.500	33.781	0.099
358.600	31.489	0.100
358.700	53.648	0.100
358.800	44.939	0.100
358.900	34.338	0.100
359.000	31.916	0.099
359.100	43.549	0.099
359.200	34.292	0.100
359.300	38.505	0.100
359.400	47.715	0.100
359.500	43.640	0.099
359.600	24.987	0.100
359.700	43.299	0.100
359.800	46.483	0.100
359.900	22.511	0.100
360.000	40.337	0.099
360.100	50.931	0.100
360.200	39.278	0.100
360.300	38.697	0.099
360.400	44.685	0.099
360.500	40.304	0.099
360.600	41.509	0.099
360.700	31.848	0.100
360.800	47.723	0.099
360.900	34.945	0.099
361.000	41.560	0.099
361.100	34.240	0.100
361.200	29.026	0.100
361.300	58.128	0.100
361.400	35.401	0.100
361.500	34.308	0.100
361.600	28.718	0.100
361.700	34.914	0.100
361.800	40.055	0.100
361.900	43.809	0.099
362.000	48.703	0.100
362.100	36.592	0.099
362.200	56.273	0.099
362.300	34.086	0.099
362.400	25.326	0.099
362.500	46.385	0.099
362.600	20.360	0.099
362.700	33.678	0.099
362.800	45.717	0.099
362.900	31.639	0.099
363.000	40.715	0.100
363.100	48.529	0.099
363.200	44.602	0.100
363.300	48.437	0.100
363.400	44.905	0.100
363.500	32.096	0.099
363.600	33.079	0.100
363.700	39.709	0.100
363.800	40.791	0.100
363.900	47.856	0.099
364.000	48.797	0.099
364.100	33.026	0.100
364.200	15.946	0.099
364.300	35.745	0.100
364.400	30.936	0.099
364.500	37.824	0.100
364.600	50.525	0.100
364.700	33.155	0.099
364.800	23.374	0.100
364.900	53.842	0.099
365.000	34.175	0.100
365.100	28.227	0.099
365.200	39.121	0.099
365.300	41.590	0.099
365.400	31.045	0.100
365.500	39.865	0.100
365.600	37.671	0.099
365.700	27.310	0.099
365.800	41.789	0.099
365.900	37.703	0.099
366.000	47.934	0.099
366.100	45.662	0.099
366.200	31.885	0.100
366.300	18.715	0.099
366.400	31.546	0.099
366.500	25.660	0.099
366.600	44.829	0.100
366.700	36.272	0.100
366.800	64.735	0.099
366.900	45.584	0.099
367.000	40.891	0.099
367.100	36.071	0.099
367.200	25.463	0.100
367.300	16.694	0.099
367.400	37.640	0.100
367.500	34.868	0.100
367.600	48.745	0.099
367.700	34.341	0.099
367.800	47.590	0.100
367.900	37.646	0.099
368.000	52.418	0.099
368.100	46.127	0.099
368.200	25.382	0.100
368.300	44.452	0.100
368.400	39.633	0.100
368.500	31.205	0.100
368.600	37.313	0.099
368.700	24.699	0.099
368.800	42.413	0.100
368.900	37.343	0.100
369.000	44.464	0.100
369.100	30.324	0.099
369.200	33.669	0.100
369.300	25.855	0.100
369.400	50.714	0.100
369.500	39.147	0.099
369.600	36.601	0.099
369.700	14.590	0.099
369.800	50.383	0.100
369.900	48.162	0.099
370.000	44.461	0.100
370.100	37.713	0.100
370.200	44.828	0.100
370.300	41.736	0.099
370.400	29.295	0.099
370.500	40.549	0.100
370.600	37.549	0.100
370.700	30.237	0.100
370.800	44.542	0.099
370.900	38.089	0.100
371.000	37.594	0.100
371.100	47.593	0.100
371.200	38.691	0.100
371.300	39.126	0.099
371.400	25.527	0.100
371.500	29.934	0.100
371.600	55.794	0.100
371.700	12.622	0.099
371.800	38.934	0.099
371.900	31.088	0.099
372.000	27.425	0.100
372.100	34.868	0.100
372.200	57.159	0.099
372.300	36.750	0.100
372.400	42.123	0.100
372.500	13.283	0.100
372.600	26.738	0.099
372.700	34.477	0.100
372.800	40.138	0.100
372.900	43.512	0.100
373.000	25.793	0.099
373.100	31.008	0.099
373.200	35.547	0.099
373.300	41.678	0.100
373.400	41.882	0.100
373.500	28.890	0.099
373.600	38.512	0.100
373.700	40.535	0.100
373.800	23.593	0.100
373.900	12.105	0.100
374.000	45.274	0.100
374.100	31.418	0.100
374.200	35.582	0.100
374.300	35.856	0.100
374.400	35.551	0.100
374.500	36.214	0.100
374.600	34.946	0.100
374.700	30.117	0.100
374.800	31.447	0.100
374.900	41.729	0.100
375.000	37.927	0.100
375.100	39.634	0.099
375.200	39.194	0.100
375.300	35.668	0.100
375.400	28.285	0.100
375.500	50.383	0.100
375.600	50.932	0.100
375.700	26.568	0.100
375.800	24.735	0.100
375.900	32.119	0.100
376.000	25.404	0.100
376.100	56.819	0.100
376.200	36.666	0.100
376.300	39.923	0.100
376.400	24.381	0.100
376.500	35.086	0.100
376.600	19.292	0.100
376.700	36.381	0.099
376.800	50.527	0.099
376.900	49.313	0.100
377.000	36.685	0.100
377.100	31.032	0.099
377.200	38.174	0.100
377.300	34.640	0.100
377.400	40.298	0.099
377.500	34.412	0.100
377.600	32.481	0.100
377.700	38.161	0.100
377.800	35.013	0.100
377.900	33.553	0.099
378.000	31.172	0.100
378.100	40.547	0.100
378.200	25.039	0.100
378.300	40.946	0.100
378.400	42.164	0.100
378.500	13.578	0.100
378.600	35.258	0.099
378.700	44.495	0.100
378.800	26.420	0.100
378.900	36.016	0.099
379.000	34.964	0.099
379.100	25.933	0.100
379.200	22.431	0.099
379.300	37.095	0.099
379.400	53.242	0.100
379.500	40.258	0.100
379.600	29.883	0.100
379.700	26.574	0.100
379.800	40.220	0.100
379.900	35.110	0.099
380.000	37.576	0.099
380.100	36.897	0.100
380.200	48.326	0.099
380.300	25.583	0.100
380.400	55.535	0.100
380.500	18.260	0.099
380.600	28.441	0.100
380.700	56.392	0.099
380.800	40.430	0.100
380.900	19.670	0.099
381.000	39.589	0.100
381.100	21.205	0.100
381.200	37.143	0.100
381.300	34.666	0.099
381.400	27.767	0.100
381.500	22.760	0.100
381.600	39.278	0.100
381.700	27.187	0.100
381.800	44.242	0.100
381.900	37.973	0.099
382.000	37.552	0.099
382.100	32.758	0.100
382.200	24.455	0.099
382.300	35.231	0.099
382.400	36.049	0.100
382.500	24.210	0.100
382.600	36.929	0.100
382.700	34.496	0.100
382.800	17.370	0.100
382.900	45.446	0.099
383.000	40.092	0.100
383.100	40.009	0.100
383.200	33.481	0.100
383.300	36.153	0.100
383.400	43.140	0.100
383.500	38.486	0.100
383.600	27.900	0.100
383.700	37.921	0.100
383.800	38.604	0.100
383.900	14.750	0.100
384.000	27.009	0.100
384.100	48.198	0.100
384.200	37.368	0.100
384.300	41.396	0.100
384.400	25.584	0.100
384.500	24.483	0.100
384.600	22.048	0.100
384.700	33.208	0.100
384.800	32.310	0.100
384.900	38.998	0.100
385.000	9.810	0.100
385.100	27.882	0.100
385.200	44.284	0.100
385.300	41.311	0.100
385.400	33.479	0.100
385.500	44.541	0.100
385.600	29.784	0.099
385.700	20.945	0.100
385.800	18.690	0.099
385.900	24.918	0.100
386.000	49.049	0.100
386.100	38.941	0.100
386.200	31.943	0.100
386.300	57.050	0.099
386.400	14.174	0.100
386.500	36.967	0.099
386.600	29.825	0.100
386.700	21.477	0.100
386.800	58.193	0.100
386.900	41.650	0.099
387.000	18.696	0.099
387.100	17.186	0.100
387.200	43.880	0.100
387.300	29.306	0.100
387.400	17.247	0.099
387.500	28.121	0.099
387.600	36.683	0.099
387.700	51.165	0.100
387.800	44.451	0.099
387.900	20.473	0.100
388.000	40.981	0.099
388.100	30.710	0.099
388.200	44.436	0.100
388.300	30.284	0.099
388.400	44.144	0.099
388.500	32.612	0.100
388.600	25.345	0.100
388.700	37.608	0.100
388.800	14.159	0.100
388.900	27.142	0.100
389.000	34.202	0.100
389.100	31.550	0.100
389.200	33.730	0.099
389.300	33.577	0.100
389.400	27.765	0.100
389.500	35.702	0.099
389.600	28.862	0.099
389.700	40.906	0.100
389.800	13.733	0.099
389.900	43.176	0.100
390.000	25.135	0.099
390.100	40.377	0.100
390.200	33.760	0.100
390.300	34.631	0.099
390.400	40.013	0.100
390.500	29.796	0.099
390.600	32.464	0.099
390.700	24.648	0.100
390.800	19.775	0.099
390.900	26.810	0.100
391.000	12.050	0.100
391.100	13.473	0.099
391.200	4.640	0.099
391.300	15.698	0.099
391.400	15.026	0.099
391.500	24.581	0.100
391.600	10.612	0.099
391.700	23.771	0.099
391.800	16.963	0.099
391.900	6.258	0.099
392.000	10.130	0.099
392.100	13.672	0.099
392.200	-4.992	0.099
392.300	-0.798	0.099
392.400	5.199	0.099
392.500	13.375	0.099
392.600	-6.294	0.099
392.700	22.736	0.099
392.800	-20.412	0.099
392.900	10.124	0.099
393.000	2.049	0.099
393.100	18.410	0.100
393.200	7.130	0.099
393.300	-28.147	0.100
393.400	-19.957	0.099
393.500	-4.155	0.099
393.600	-5.374	0.099
393.700	8.357	0.099
393.800	-13.364	0.099
393.900	-7.845	0.100
394.000	-31.006	0.100
394.100	-15.948	0.099
394.200	1.400	0.100
394.300	-6.414	0.099
394.400	0.173	0.100
394.500	-9.941	0.100
394.600	-18.776	0.099
394.700	4.191	0.099
394.800	-13.943	0.099
394.900	-6.530	0.100
395.000	-8.196	0.100
395.100	-4.544	0.100
395.200	-14.179	0.099
395.300	-7.930	0.100
395.400	-3.302	0.100
395.500	7.496	0.100
395.600	7.277	0.099
395.700	-14.689	0.099
395.800	-27.771	0.099
395.900	-16.837	0.099
396.000	12.967	0.100
396.100	-13.439	0.099
396.200	-0.030	0.099
396.300	-13.145	0.099
396.400	-10.798	0.099
396.500	4.077	0.100
396.600	-13.443	0.100
396.700	-4.997	0.099
396.800	-10.234	0.100
396.900	-10.633	0.099
397.000	-18.300	0.099
397.100	4.350	0.100
397.200	4.965	0.100
397.300	-4.355	0.099
397.400	-13.191	0.099
397.500	-3.445	0.099
397.600	0.401	0.099
397.700	-7.410	0.099
397.800	-10.890	0.100
397.900	-15.744	0.099
398.000	-12.735	0.099
398.100	1.613	0.099
398.200	-5.381	0.099
398.300	3.096	0.100
398.400	-17.417	0.100
398.500	-1.694	0.099
398.600	-4.243	0.099
398.700	-6.608	0.099
398.800	10.389	0.100
398.900	-8.387	0.100
399.000	-13.552	0.100
399.100	-3.681	0.099
399.200	-12.137	0.100
399.300	0.219	0.099
399.400	-15.768	0.099
399.500	-7.428	0.099
399.600	-2.653	0.099
399.700	-10.881	0.099
399.800	-6.460	0.099
399.900	-0.878	0.099
400.000	-5.415	0.099
400.100	-2.277	0.100
400.200	-13.293	0.099
400.300	2.935	0.099
400.400	-14.897	0.100
400.500	-12.250	0.100
400.600	-16.417	0.099
400.700	-7.630	0.099
400.800	6.986	0.099
400.900	1.578	0.100
401.000	-8.017	0.099
401.100	-9.591	0.099
401.200	-7.750	0.099
401.300	-7.638	0.099
401.400	-15.123	0.099
401.500	-3.458	0.099
401.600	20.430	0.100
401.700	-8.829	0.099
401.800	-14.637	0.100
401.900	-26.241	0.099
402.000	-19.148	0.099
402.100	6.870	0.099
402.200	-1.652	0.100
402.300	-12.423	0.099
402.400	2.196	0.099
402.500	9.720	0.100
402.600	-0.069	0.100
402.700	-8.202	0.100
402.800	-13.155	0.099
402.900	-9.083	0.099
403.000	-23.098	0.099
403.100	-2.274	0.100
403.200	-13.771	0.099
403.300	-10.154	0.100
403.400	10.292	0.099
403.500	-12.157	0.099
403.600	-1.921	0.099
403.700	15.328	0.099
403.800	-7.663	0.099
403.900	24.778	0.099
404.000	-8.092	0.099
404.100	-6.056	0.099
404.200	-16.743	0.099
404.300	2.929	0.099
404.400	-9.124	0.100
404.500	-19.375	0.099
404.600	-12.045	0.099
404.700	-21.803	0.100
404.800	8.729	0.099
404.900	-12.710	0.099
405.000	-1.042	0.099
405.100	-12.065	0.099
405.200	-9.649	0.100
405.300	1.864	0.100
405.400	-8.613	0.099
405.500	-16.696	0.100
405.600	-12.689	0.099
405.700	-12.668	0.099
405.800	-21.791	0.099
405.900	-3.535	0.100
406.000	-6.972	0.099
406.100	-5.038	0.100
406.200	1.664	0.100
406.300	6.668	0.100
406.400	-5.962	0.100
406.500	-10.676	0.099
406.600	-4.795	0.099
406.700	-30.692	0.100
406.800	2.609	0.100
406.900	-10.967	0.099
407.000	1.024	0.099
407.100	-16.504	0.100
407.200	-7.960	0.099
407.300	-20.997	0.099
407.400	1.170	0.099
407.500	-25.671	0.100
407.600	-20.277	0.099
407.700	-15.234	0.099
407.800	6.527	0.099
407.900	-6.146	0.099
408.000	-19.186	0.099
408.100	4.317	0.100
408.200	-24.965	0.099
408.300	-11.896	0.100
408.400	-16.085	0.099
408.500	-7.974	0.100
408.600	-16.968	0.099
408.700	-19.194	0.099
408.800	0.762	0.099
408.900	-14.922	0.100
409.000	-11.949	0.099
409.100	-13.229	0.099
409.200	-22.462	0.100
409.300	-4.312	0.100
409.400	-29.598	0.099
409.500	-9.214	0.100
409.600	-19.268	0.099
409.700	-15.008	0.100
409.800	-24.286	0.100
409.900	-3.709	0.100
410.000	-13.213	0.100
410.100	4.762	0.100
410.200	-34.575	0.099
410.300	4.565	0.100
410.400	2.325	0.100
410.500	-1.085	0.100
410.600	-14.889	0.100
410.700	-3.178	0.100
410.800	-24.912	0.100
410.900	-13.736	0.099
411.000	-24.192	0.100
411.100	3.088	0.100
411.200	0.533	0.099
411.300	-15.290	0.099
411.400	-15.485	0.099
411.500	-17.944	0.100
411.600	-2.533	0.099
411.700	-15.807	0.100
411.800	-28.834	0.100
411.900	-23.418	0.100
412.000	-11.870	0.099
412.100	-9.022	0.099
412.200	0.978	0.100
412.300	-0.488	0.100
412.400	-7.704	0.100
412.500	-11.162	0.099
412.600	-29.680	0.100
412.700	-5.718	0.099
412.800	-15.596	0.099
412.900	4.281	0.099
413.000	-9.052	0.099
413.100	-10.233	0.100
413.200	-11.931	0.099
413.300	-10.359	0.099
413.400	-20.353	0.100
413.500	-12.394	0.100
413.600	-0.459	0.099
413.700	-16.918	0.099
413.800	-18.030	0.099
413.900	-6.120	0.100
414.000	-31.885	0.100
414.100	-29.706	0.099
414.200	-27.392	0.099
414.300	4.314	0.099
414.400	-6.112	0.099
414.500	-25.317	0.099
414.600	-24.068	0.100
414.700	-16.711	0.099
414.800	-24.112	0.099
414.900	-2.693	0.099
415.000	-19.201	0.099
415.100	-11.183	0.100
415.200	-0.101	0.099
415.300	-1.492	0.099
415.400	-33.934	0.099
415.500	-17.944	0.100
415.600	-1.308	0.099
415.700	-16.866	0.100
415.800	-21.146	0.100
415.900	-1.344	0.100
416.000	2.105	0.100
416.100	-23.460	0.100
416.200	-7.044	0.099
416.300	-14.981	0.099
416.400	-0.723	0.100
416.500	-26.419	0.099
416.600	-4.214	0.100
416.700	-13.171	0.100
416.800	-11.084	0.100
416.900	-17.421	0.100
417.000	-19.151	0.100
417.100	0.254	0.100
417.200	-13.957	0.099
417.300	-2.384	0.100
417.400	-12.498	0.100
417.500	-9.748	0.100
417.600	-21.760	0.099
417.700	-23.264	0.100
417.800	-5.159	0.100
417.900	-21.269	0.100
418.000	-13.390	0.099
418.100	-8.897	0.100
418.200	-9.147	0.100
418.300	-28.053	0.100
418.400	-24.449	0.099
418.500	-7.647	0.099
418.600	-0.401	0.100
418.700	-28.883	0.100
418.800	-21.854	0.099
418.900	-15.317	0.100
419.000	-16.133	0.100
419.100	-18.082	0.100
419.200	-20.280	0.100
419.300	-17.268	0.100
419.400	-12.770	0.100
419.500	-25.675	0.099
419.600	-11.630	0.100
419.700	-11.716	0.100
419.800	-3.587	0.100
419.900	-24.083	0.100
420.000	-12.940	0.099
420.100	-10.366	0.099
420.200	-7.781	0.100
420.300	-33.148	0.100
420.400	1.948	0.100
420.500	-12.514	0.100
420.600	-28.564	0.100
420.700	-29.821	0.099
420.800	-5.442	0.100
420.900	-8.039	0.099
421.000	-25.258	0.100
421.100	-29.395	0.100
421.200	-5.673	0.100
421.300	-25.237	0.100
421.400	-6.011	0.100
421.500	-18.308	0.100
421.600	-8.025	0.100
421.700	-24.518	0.099
421.800	-18.126	0.099
421.900	-3.808	0.099
422.000	-13.183	0.100
422.100	-10.580	0.099
422.200	5.303	0.100
422.300	-30.868	0.099
422.400	-16.838	0.099
422.500	-20.337	0.100
422.600	-24.223	0.100
422.700	7.202	0.100
422.800	-11.480	0.099
422.900	6.521	0.099
423.000	-18.060	0.099
423.100	2.478	0.100
423.200	-27.417	0.100
423.300	-13.946	0.100
423.400	-3.320	0.099
423.500	-18.480	0.100
423.600	-21.687	0.099
423.700	-19.250	0.100
423.800	-24.754	0.099
423.900	0.512	0.100
424.000	-16.963	0.100
424.100	-13.637	0.099
424.200	-8.086	0.099
424.300	-25.512	0.100
424.400	-13.566	0.099
424.500	4.402	0.100
424.600	-28.771	0.100
424.700	-12.718	0.100
424.800	-16.135	0.100
424.900	-14.401	0.100
425.000	-5.667	0.100
425.100	-17.674	0.099
425.200	-24.885	0.100
425.300	-25.917	0.100
425.400	-9.533	0.100
425.500	-5.708	0.100
425.600	-37.658	0.099
425.700	-26.296	0.100
425.800	-6.255	0.100
425.900	-26.074	0.099
426.000	-18.329	0.099
426.100	-5.670	0.100
426.200	-14.079	0.100
426.300	-14.677	0.100
426.400	-16.778	0.099
426.500	-12.967	0.099
426.600	-33.377	0.099
426.700	-13.750	0.099
426.800	-7.360	0.099
426.900	-13.612	0.100
427.000	-22.993	0.099
427.100	-5.907	0.099
427.200	1.933	0.099
427.300	-14.466	0.100
427.400	-28.619	0.099
427.500	-19.255	0.099
427.600	-3.579	0.099
427.700	-10.155	0.100
427.800	-26.906	0.100
427.900	-15.185	0.099
428.000	-19.317	0.099
428.100	-21.408	0.100
428.200	-10.478	0.099
428.300	-38.141	0.100
428.400	-7.596	0.099
428.500	-23.368	0.099
428.600	-9.197	0.100
428.700	-10.627	0.100
428.800	-17.894	0.099
428.900	-6.274	0.099
429.000	-15.929	0.100
429.100	-6.615	0.100
429.200	-25.042	0.100
429.300	-19.384	0.100
429.400	-26.917	0.099
429.500	-11.120	0.100
429.600	-3.616	0.100
429.700	-22.140	0.100
429.800	-22.972	0.100
429.900	-25.234	0.100
430.000	-24.959	0.100
430.100	-11.835	0.099
430.200	-21.908	0.100
430.300	-11.606	0.100
430.400	-22.252	0.100
430.500	-13.606	0.099
430.600	-24.257	0.099
430.700	-31.754	0.100
430.800	-4.424	0.099
430.900	-4.781	0.099
431.000	0.625	0.100
431.100	-1.947	0.100
431.200	-12.440	0.100
431.300	-21.703	0.099
431.400	-29.803	0.100
431.500	-3.346	0.100
431.600	1.598	0.100
431.700	-5.376	0.100
431.800	-18.668	0.100
431.900	-26.378	0.100
432.000	-34.575	0.100
432.100	-13.078	0.100
432.200	-8.093	0.099
432.300	-16.811	0.099
432.400	-11.055	0.100
432.500	-31.495	0.100
432.600	-14.040	0.099
432.700	-13.648	0.100
432.800	-13.041	0.100
432.900	-28.024	0.100
433.000	-0.021	0.100
433.100	-37.658	0.100
433.200	-26.966	0.100
433.300	-4.640	0.100
433.400	-19.111	0.100
433.500	-5.361	0.100
433.600	-19.420	0.100
433.700	-18.588	0.100
433.800	-14.826	0.100
433.900	-32.476	0.099
434.000	-4.268	0.099
434.100	-11.511	0.099
434.200	-16.115	0.100
434.300	-8.906	0.099
434.400	-13.408	0.100
434.500	-24.778	0.100
434.600	-23.948	0.100
434.700	-7.271	0.100
434.800	-16.293	0.100
434.900	-5.816	0.100
435.000	-14.883	0.100
435.100	-11.552	0.100
435.200	-22.976	0.100
435.300	-5.675	0.100
435.400	-16.054	0.100
435.500	-12.163	0.100
435.600	-25.437	0.100
435.700	-30.532	0.100
435.800	-2.142	0.100
435.900	-12.309	0.100
436.000	-11.843	0.100
436.100	-14.955	0.100
436.200	-29.767	0.100
436.300	-38.808	0.099
436.400	-5.294	0.100
436.500	-21.008	0.100
436.600	-19.062	0.100
436.700	-9.335	0.100
436.800	-20.342	0.100
436.900	-13.321	0.100
437.000	-12.046	0.100
437.100	-4.847	0.099
437.200	-25.476	0.100
437.300	-9.140	0.100
437.400	-14.629	0.100
437.500	-11.314	0.100
437.600	-6.750	0.100
437.700	-29.230	0.100
437.800	-15.056	0.100
437.900	-21.988	0.100
438.000	-13.732	0.100
438.100	-9.358	0.100
438.200	-18.668	0.100
438.300	-15.602	0.100
438.400	-26.624	0.100
438.500	-17.516	0.099
438.600	-17.334	0.100
438.700	-22.619	0.100
438.800	-7.723	0.100
438.900	-9.553	0.100
439.000	-11.298	0.100
439.100	-10.427	0.100
439.200	-13.256	0.099
439.300	-8.353	0.100
439.400	-23.559	0.100
439.500	-35.938	0.100
439.600	-28.081	0.100
439.700	1.530	0.100
439.800	-18.254	0.100
439.900	-16.920	0.099
440.000	-20.074	0.100
440.100	-13.815	0.100
440.200	-16.172	0.100
440.300	-16.820	0.100
440.400	-4.946	0.100
440.500	-21.510	0.100
440.600	-6.764	0.100
440.700	-13.868	0.100
440.800	-12.599	0.100
440.900	-24.307	0.100
441.000	-8.650	0.100
441.100	-16.894	0.100
441.200	-3.940	0.100
441.300	-32.714	0.100
441.400	-12.897	0.100
441.500	-8.366	0.100
441.600	-21.332	0.100
441.700	-14.906	0.100
441.800	-17.625	0.100
441.900	-12.772	0.099
442.000	-11.288	0.100
442.100	-27.811	0.100
442.200	-11.923	0.100
442.300	-0.554	0.100
442.400	-20.717	0.100
442.500	-32.345	0.100
442.600	-14.904	0.100
442.700	-17.090	0.100
442.800	-14.316	0.100
442.900	-8.698	0.100
443.000	-9.431	0.100
443.100	-8.306	0.099
443.200	-10.532	0.100
443.300	-38.427	0.099
443.400	-19.052	0.100
443.500	-27.469	0.099
443.600	10.770	0.100
443.700	-26.945	0.100
443.800	-15.758	0.100
443.900	-31.333	0.099
444.000	-3.030	0.100
444.100	-18.016	0.100
444.200	-30.437	0.100
444.300	-22.173	0.099
444.400	-4.355	0.100
444.500	0.099	0.100
444.600	-23.341	0.100
444.700	-20.964	0.100
444.800	-6.641	0.100
444.900	-43.172	0.100
445.000	0.026	0.099
445.100	-23.808	0.100
445.200	-32.087	0.099
445.300	-4.718	0.099
445.400	-6.080	0.099
445.500	-4.814	0.099
445.600	2.945	0.099
445.700	5.786	0.100
445.800	-6.260	0.099
445.900	-28.429	0.099
446.000	-9.088	0.099
446.100	-20.037	0.099
446.200	-24.505	0.100
446.300	-29.722	0.099
446.400	-20.782	0.100
446.500	-18.020	0.099
446.600	-9.393	0.100
446.700	-23.562	0.099
446.800	-24.097	0.099
446.900	-15.422	0.099
447.000	-17.542	0.100
447.100	-9.927	0.099
447.200	-16.204	0.100
447.300	-27.898	0.099
447.400	4.974	0.100
447.500	-19.002	0.100
447.600	-1.405	0.099
447.700	-12.334	0.099
447.800	-12.141	0.100
447.900	-36.009	0.100
448.000	-7.521	0.100
448.100	-7.985	0.099
448.200	-10.187	0.099
448.300	-18.504	0.100
448.400	-4.360	0.099
448.500	-23.276	0.099
448.600	-10.525	0.099
448.700	-17.531	0.100
448.800	-21.666	0.099
448.900	-18.182	0.100
449.000	-13.385	0.100
449.100	-10.801	0.100
449.200	-1.550	0.099
449.300	-20.350	0.100
449.400	-15.296	0.099
449.500	-16.259	0.100
449.600	-19.370	0.100
449.700	-6.476	0.100
449.800	-20.324	0.100
449.900	-19.605	0.099
450.000	-8.038	0.100
450.100	-23.152	0.099
450.200	0.067	0.099
450.300	-20.391	0.100
450.400	-32.027	0.099
450.500	-36.218	0.099
450.600	-7.180	0.099
450.700	-9.867	0.100
450.800	-11.560	0.099
450.900	-24.400	0.099
451.000	-14.201	0.100
451.100	-7.668	0.099
451.200	-23.839	0.099
451.300	-8.089	0.099
451.400	-2.833	0.099
451.500	-22.014	0.100
451.600	5.609	0.100
451.700	-33.981	0.099
451.800	-26.701	0.100
451.900	-17.128	0.100
452.000	-19.288	0.100
452.100	-7.295	0.100
452.200	-9.913	0.099
452.300	-13.279	0.099
452.400	-32.887	0.100
452.500	-18.569	0.100
452.600	-6.329	0.100
452.700	-16.676	0.100
452.800	-10.567	0.100
452.900	-19.590	0.100
453.000	-27.542	0.099
453.100	1.834	0.100
453.200	-13.194	0.100
453.300	-6.111	0.100
453.400	-9.985	0.100
453.500	-12.385	0.099
453.600	-25.146	0.099
453.700	-5.581	0.099
453.800	-21.666	0.100
453.900	-15.738	0.100
454.000	-14.899	0.099
454.100	-17.433	0.100
454.200	0.646	0.100
454.300	-13.061	0.099
454.400	-21.204	0.100
454.500	-18.121	0.100
454.600	-19.853	0.099
454.700	-21.460	0.099
454.800	-10.464	0.099
454.900	-18.143	0.099
455.000	-26.463	0.099
455.100	-10.055	0.099
455.200	-0.842	0.100
455.300	-32.783	0.099
455.400	-6.259	0.099
455.500	-12.488	0.099
455.600	-10.355	0.100
455.700	-31.955	0.099
455.800	-27.085	0.099
455.900	-8.318	0.100
456.000	-3.388	0.100
456.100	-19.675	0.099
456.200	-26.852	0.100
456.300	-35.341	0.100
456.400	-2.539	0.099
456.500	-3.202	0.100
456.600	-12.146	0.100
456.700	-19.908	0.100
456.800	-10.609	0.099
456.900	-9.669	0.100
457.000	-25.073	0.100
457.100	-8.446	0.100
457.200	-15.819	0.100
457.300	-16.115	0.100
457.400	-12.422	0.100
457.500	-20.556	0.100
457.600	-38.908	0.099
457.700	-6.636	0.099
457.800	-19.354	0.100
457.900	-16.208	0.099
458.000	-16.286	0.100
458.100	-6.125	0.099
458.200	-15.992	0.100
458.300	-29.697	0.100
458.400	-21.365	0.100
458.500	-11.597	0.100
458.600	-11.414	0.099
458.700	-10.754	0.100
458.800	-20.599	0.099
458.900	-12.949	0.100
459.000	-4.816	0.100
459.100	-23.736	0.099
459.200	-11.673	0.100
459.300	-7.962	0.099
459.400	-12.785	0.100
459.500	-24.615	0.100
459.600	-16.155	0.099
459.700	-3.726	0.099
459.800	10.616	0.100
459.900	-35.718	0.100
460.000	-12.074	0.100
460.100	-17.645	0.100
460.200	-18.521	0.100
460.300	-13.069	0.100
460.400	-6.085	0.099
460.500	-27.509	0.100
460.600	-12.289	0.099
460.700	-24.309	0.100
460.800	-16.255	0.100
460.900	-9.714	0.100
461.000	-19.586	0.100
461.100	-24.352	0.100
461.200	-37.785	0.100
461.300	-7.066	0.100
461.400	-10.670	0.100
461.500	-16.341	0.100
461.600	-8.243	0.100
461.700	-4.473	0.100
461.800	-16.341	0.100
461.900	-12.195	0.100
462.000	-12.754	0.099
462.100	-18.994	0.100
462.200	-37.232	0.100
462.300	-22.054	0.100
462.400	-14.188	0.099
462.500	-13.912	0.099
462.600	-25.349	0.099
462.700	-18.544	0.099
462.800	-14.668	0.099
462.900	-31.952	0.100
463.000	-5.358	0.100
463.100	-14.431	0.100
463.200	-16.846	0.100
463.300	-15.904	0.100
463.400	-20.183	0.099
463.500	-20.160	0.099
463.600	-19.505	0.100
463.700	-23.042	0.099
463.800	5.996	0.099
463.900	-8.474	0.099
464.000	-23.558	0.100
464.100	-11.973	0.100
464.200	-8.807	0.099
464.300	-0.501	0.100
464.400	0.274	0.100
464.500	-11.305	0.100
464.600	-36.861	0.100
464.700	-28.661	0.100
464.800	1.987	0.100
464.900	0.983	0.100
465.000	-15.776	0.100
465.100	-8.695	0.100
465.200	-6.103	0.099
465.300	-17.793	0.100
465.400	-26.906	0.100
465.500	-6.877	0.100
465.600	-25.960	0.100
465.700	-10.952	0.099
465.800	-2.780	0.100
465.900	-20.311	0.100
466.000	-19.873	0.100
466.100	-5.888	0.100
466.200	-7.360	0.100
466.300	-12.028	0.100
466.400	-9.986	0.100
466.500	-25.741	0.099
466.600	-14.536	0.100
466.700	-25.095	0.100
466.800	-13.943	0.100
466.900	-15.960	0.100
467.000	-27.454	0.100
467.100	-6.974	0.100
467.200	-13.512	0.100
467.300	-39.345	0.100
467.400	5.070	0.100
467.500	-9.792	0.100
467.600	-13.521	0.100
467.700	-8.495	0.100
467.800	-14.109	0.100
467.900	-14.273	0.100
468.000	-17.212	0.100
468.100	-26.337	0.100
468.200	-4.983	0.100
468.300	-17.712	0.100
468.400	-9.805	0.100
468.500	-21.143	0.100
468.600	-6.884	0.100
468.700	-4.388	0.100
468.800	-25.940	0.100
468.900	-27.207	0.100
469.000	-15.674	0.100
469.100	-8.294	0.100
469.200	-8.948	0.099
469.300	-13.370	0.100
469.400	-25.008	0.100
469.500	-1.984	0.100
469.600	-24.138	0.100
469.700	-20.217	0.099
469.800	-0.495	0.100
469.900	-4.307	0.100
470.000	-20.474	0.100
470.100	-3.565	0.100
470.200	-0.932	0.100
470.300	-22.119	0.100
470.400	-20.674	0.100
470.500	-20.156	0.099
470.600	-23.251	0.100
470.700	-13.925	0.100
470.800	-16.079	0.100
470.900	-14.534	0.100
471.000	-14.201	0.100
471.100	9.509	0.100
471.200	-3.835	0.100
471.300	-19.119	0.100
471.400	-8.397	0.100
471.500	-39.003	0.100
471.600	-19.171	0.100
471.700	-14.494	0.100
471.800	-13.101	0.100
471.900	-24.816	0.100
472.000	-20.017	0.100
472.100	-11.828	0.100
472.200	-15.390	0.100
472.300	-19.821	0.100
472.400	-24.975	0.100
472.500	-6.167	0.100
472.600	-17.464	0.100
472.700	-10.619	0.100
472.800	-13.663	0.100
472.900	-28.872	0.100
473.000	-17.634	0.100
473.100	-3.461	0.100
473.200	-12.255	0.100
473.300	-14.334	0.100
473.400	-19.234	0.100
473.500	-21.350	0.100
473.600	-5.434	0.100
473.700	-22.423	0.100
473.800	2.125	0.100
473.900	-12.260	0.100
474.000	9.341	0.100
474.100	-28.783	0.100
474.200	-14.001	0.100
474.300	-30.933	0.100
474.400	-22.544	0.100
474.500	-22.217	0.100
474.600	-3.805	0.100
474.700	-19.543	0.100
474.800	-7.786	0.100
474.900	-3.927	0.100
475.000	-13.645	0.100
475.100	-13.969	0.100
475.200	-21.104	0.100
475.300	-14.499	0.100
475.400	-24.346	0.100
475.500	-29.091	0.099
475.600	1.696	0.100
475.700	-4.132	0.099
475.800	-9.310	0.100
475.900	-13.353	0.100
476.000	-13.799	0.100
476.100	-13.036	0.100
476.200	-16.473	0.100
476.300	-24.773	0.099
476.400	-20.244	0.099
476.500	-7.955	0.100
476.600	-18.720	0.100
476.700	-11.707	0.100
476.800	-3.575	0.099
476.900	-11.148	0.100
477.000	-18.707	0.100
477.100	-10.653	0.100
477.200	-13.800	0.100
477.300	-13.961	0.100
477.400	-19.032	0.100
477.500	-4.678	0.099
477.600	-28.118	0.100
477.700	-23.108	0.100
477.800	-15.536	0.100
477.900	-6.458	0.100
478.000	-19.002	0.100
478.100	1.757	0.100
478.200	-14.311	0.100
478.300	-17.312	0.099
478.400	-23.693	0.100
478.500	-5.055	0.100
478.600	-42.226	0.099
478.700	-8.618	0.100
478.800	-3.490	0.100
478.900	-20.063	0.100
479.000	-26.670	0.100
479.100	-0.353	0.100
479.200	-2.740	0.100
479.300	-6.906	0.100
479.400	-9.968	0.100
479.500	-24.993	0.100
479.600	-10.157	0.100
479.700	-10.284	0.100
479.800	-8.778	0.100
479.900	-21.501	0.099
480.000	-9.753	0.100
480.100	0.981	0.100
480.200	-19.745	0.100
480.300	-24.567	0.100
480.400	-26.412	0.100
480.500	3.976	0.100
480.600	-5.402	0.100
480.700	-24.598	0.100
480.800	-1.655	0.100
480.900	-9.447	0.100
481.000	11.273	0.100
481.100	11.653	0.100
481.200	7.076	0.100
481.300	3.381	0.100
481.400	0.417	0.100
481.500	5.384	0.100
481.600	7.408	0.099
481.700	-9.794	0.100
481.800	27.615	0.100
481.900	-1.606	0.100
482.000	1.994	0.100
482.100	5.682	0.100
482.200	22.904	0.100
482.300	12.995	0.100
482.400	12.376	0.100
482.500	5.269	0.100
482.600	2.493	0.100
482.700	23.166	0.100
482.800	10.060	0.100
482.900	18.341	0.100
483.000	13.593	0.100
483.100	18.061	0.100
483.200	14.080	0.100
483.300	2.113	0.100
483.400	22.813	0.100
483.500	10.889	0.100
483.600	9.258	0.100
483.700	9.960	0.100
483.800	10.574	0.100
483.900	8.301	0.100
484.000	12.130	0.100
484.100	-0.477	0.099
484.200	-4.434	0.099
484.300	20.913	0.100
484.400	-4.061	0.100
484.500	2.233	0.100
484.600	15.644	0.100
484.700	27.594	0.100
484.800	3.350	0.100
484.900	6.863	0.100
485.000	-3.116	0.100
485.100	4.784	0.100
485.200	6.889	0.100
485.300	3.637	0.100
485.400	18.119	0.100
485.500	5.373	0.100
485.600	23.387	0.100
485.700	-10.255	0.100
485.800	9.072	0.100
485.900	-14.983	0.100
486.000	11.044	0.100
486.100	15.841	0.100
486.200	10.013	0.100
486.300	3.910	0.100
486.400	-5.625	0.100
486.500	8.568	0.100
486.600	8.895	0.100
486.700	16.902	0.100
486.800	10.419	0.100
486.900	4.494	0.100
487.000	-14.332	0.100
487.100	-0.870	0.100
487.200	4.006	0.100
487.300	3.973	0.100
487.400	14.318	0.100
487.500	-1.308	0.100
487.600	1.493	0.100
487.700	10.158	0.100
487.800	16.788	0.100
487.900	12.778	0.100
488.000	0.632	0.100
488.100	16.114	0.100
488.200	7.351	0.099
488.300	12.463	0.100
488.400	10.174	0.100
488.500	0.317	0.100
488.600	15.355	0.100
488.700	4.918	0.100
488.800	14.597	0.100
488.900	-16.505	0.100
489.000	6.577	0.100
489.100	3.979	0.100
489.200	17.147	0.100
489.300	7.717	0.100
489.400	8.654	0.100
489.500	16.953	0.100
489.600	7.983	0.100
489.700	8.120	0.100
489.800	13.670	0.100
489.900	20.163	0.100
490.000	1.717	0.100
490.100	21.383	0.100
490.200	1.152	0.100
490.300	7.813	0.100
490.400	2.187	0.100
490.500	5.357	0.100
490.600	-8.136	0.100
490.700	20.817	0.100
490.800	8.349	0.100
490.900	9.674	0.100
491.000	16.341	0.100
491.100	-6.534	0.100
491.200	32.317	0.100
491.300	25.051	0.100
491.400	12.049	0.100
491.500	9.351	0.100
491.600	27.392	0.100
491.700	15.154	0.100
491.800	2.552	0.100
491.900	7.096	0.100
492.000	17.580	0.100
492.100	20.012	0.100
492.200	26.012	0.100
492.300	29.787	0.100
492.400	-6.653	0.100
492.500	29.662	0.100
492.600	23.089	0.100
492.700	16.108	0.100
492.800	21.435	0.100
492.900	23.937	0.100
493.000	3.120	0.100
493.100	-4.705	0.100
493.200	21.136	0.100
493.300	29.566	0.100
493.400	31.632	0.100
493.500	25.300	0.100
493.600	35.764	0.100
493.700	33.602	0.100
493.800	-2.727	0.100
493.900	35.048	0.100
494.000	29.552	0.100
494.100	34.548	0.100
494.200	34.153	0.100
494.300	20.196	0.100
494.400	38.240	0.100
494.500	27.093	0.100
494.600	23.350	0.100
494.700	25.408	0.100
494.800	23.376	0.100
494.900	23.829	0.100
495.000	42.374	0.100
495.100	33.841	0.100
495.200	26.760	0.100
495.300	20.347	0.100
495.400	28.620	0.100
495.500	21.002	0.100
495.600	41.433	0.100
495.700	38.829	0.100
495.800	41.080	0.100
495.900	22.980	0.100
496.000	32.782	0.100
496.100	32.631	0.100
496.200	35.744	0.100
496.300	31.485	0.100
496.400	44.724	0.100
496.500	43.981	0.100
496.600	29.031	0.100
496.700	25.543	0.100
496.800	35.543	0.100
496.900	37.126	0.100
497.000	25.480	0.100
497.100	48.636	0.100
497.200	44.081	0.100
497.300	31.501	0.100
497.400	39.044	0.100
497.500	46.544	0.100
497.600	40.392	0.100
497.700	40.281	0.100
497.800	42.874	0.100
497.900	20.121	0.100
498.000	41.189	0.100
498.100	40.997	0.100
498.200	53.045	0.100
498.300	48.542	0.100
498.400	36.652	0.100
498.500	39.335	0.100
498.600	47.709	0.100
498.700	40.681	0.100
498.800	39.096	0.100
498.900	47.807	0.100
499.000	48.781	0.100
499.100	35.085	0.100
499.200	48.664	0.100
499.300	28.177	0.100
499.400	33.020	0.100
499.500	43.404	0.100
499.600	29.369	0.100
499.700	69.816	0.100
499.800	44.366	0.100
499.900	56.702	0.100
500.000	34.295	0.100
500.100	35.371	0.100
500.200	44.827	0.100
500.300	47.036	0.100
500.400	32.167	0.100
500.500	46.750	0.100
500.600	33.827	0.100
500.700	29.189	0.100
500.800	39.659	0.100
500.900	47.998	0.100
501.000	35.211	0.100
501.100	50.723	0.100
501.200	55.650	0.100
501.300	41.532	0.100
501.400	38.814	0.100
501.500	35.244	0.100
501.600	40.023	0.100
501.700	44.248	0.100
501.800	35.459	0.100
501.900	39.463	0.100
502.000	35.328	0.100
502.100	39.360	0.100
502.200	28.633	0.100
502.300	60.869	0.100
502.400	32.186	0.100
502.500	55.126	0.100
502.600	38.561	0.100
502.700	47.645	0.100
502.800	41.155	0.100
502.900	29.632	0.100
503.000	43.399	0.100
503.100	36.439	0.100
503.200	41.722	0.100
503.300	26.753	0.100
503.400	44.272	0.100
503.500	51.341	0.100
503.600	38.056	0.100
503.700	56.754	0.100
503.800	52.800	0.100
503.900	33.725	0.100
504.000	34.719	0.100
504.100	13.153	0.100
504.200	59.699	0.100
504.300	27.071	0.100
504.400	54.230	0.100
504.500	39.811	0.100
504.600	36.626	0.100
504.700	55.476	0.100
504.800	51.918	0.100
504.900	52.361	0.100
505.000	36.264	0.100
505.100	37.460	0.100
505.200	39.464	0.100
505.300	23.955	0.100
505.400	54.503	0.100
505.500	40.812	0.100
505.600	41.282	0.100
505.700	37.368	0.100
505.800	43.316	0.100
505.900	42.394	0.100
506.000	32.477	0.100
506.100	39.329	0.100
506.200	41.108	0.100
506.300	50.633	0.100
506.400	44.508	0.100
506.500	29.999	0.100
506.600	40.649	0.100
506.700	45.071	0.100
506.800	52.747	0.100
506.900	43.880	0.100
507.000	34.714	0.100
507.100	40.351	0.100
507.200	46.606	0.100
507.300	57.579	0.100
507.400	31.391	0.100
507.500	42.906	0.100
507.600	40.181	0.100
507.700	31.052	0.100
507.800	57.710	0.100
507.900	52.112	0.100
508.000	49.169	0.100
508.100	39.226	0.100
508.200	25.292	0.100
508.300	46.254	0.100
508.400	30.164	0.100
508.500	39.107	0.100
508.600	55.816	0.100
508.700	45.335	0.100
508.800	49.038	0.100
508.900	45.901	0.100
509.000	59.036	0.100
509.100	14.369	0.100
509.200	58.549	0.100
509.300	47.589	0.100
509.400	54.377	0.100
509.500	34.910	0.100
509.600	50.073	0.100
509.700	52.114	0.100
509.800	29.647	0.100
509.900	36.182	0.100
510.000	43.498	0.100
510.100	42.692	0.100
510.200	33.882	0.100
510.300	15.674	0.100
510.400	33.531	0.100
510.500	37.715	0.100
510.600	33.141	0.100
510.700	54.476	0.100
510.800	32.546	0.100
510.900	39.732	0.100
511.000	39.506	0.100
511.100	31.646	0.100
511.200	45.382	0.100
511.300	40.753	0.100
511.400	29.500	0.100
511.500	35.300	0.100
511.600	27.646	0.100
511.700	25.455	0.100
511.800	29.608	0.100
511.900	36.596	0.100
512.000	42.547	0.100
512.100	49.902	0.100
512.200	30.242	0.100
512.300	47.361	0.100
512.400	44.060	0.100
512.500	25.121	0.100
512.600	38.348	0.100
512.700	42.559	0.100
512.800	50.376	0.100
512.900	40.066	0.100
513.000	38.292	0.100
513.100	37.132	0.100
513.200	41.098	0.100
513.300	36.797	0.100
513.400	60.128	0.100
513.500	24.780	0.100
513.600	23.539	0.100
513.700	44.698	0.100
513.800	47.549	0.100
513.900	29.293	0.100
514.000	27.740	0.100
514.100	55.045	0.100
514.200	40.498	0.100
514.300	38.787	0.100
514.400	39.029	0.100
514.500	46.889	0.100
514.600	23.237	0.100
514.700	54.933	0.100
514.800	42.588	0.100
514.900	55.235	0.100
515.000	55.852	0.100
515.100	46.284	0.100
515.200	39.176	0.100
515.300	31.637	0.100
515.400	40.075	0.100
515.500	47.748	0.100
515.600	24.254	0.100
515.700	35.152	0.100
515.800	54.464	0.100
515.900	7.996	0.100
516.000	39.399	0.100
516.100	48.114	0.100
516.200	37.877	0.100
516.300	43.055	0.100
516.400	45.863	0.100
516.500	29.989	0.100
516.600	48.280	0.100
516.700	26.416	0.100
516.800	38.197	0.100
516.900	38.244	0.100
517.000	55.933	0.100
517.100	42.095	0.100
517.200	30.601	0.100
517.300	15.327	0.100
517.400	40.047	0.100
517.500	43.580	0.100
517.600	44.744	0.100
517.700	66.123	0.100
517.800	38.730	0.100
517.900	33.788	0.100
518.000	50.027	0.100
518.100	28.959	0.100
518.200	41.409	0.100
518.300	34.596	0.100
518.400	48.442	0.100
518.500	38.536	0.100
518.600	20.952	0.100
518.700	23.452	0.100
518.800	38.464	0.100
518.900	26.511	0.100
519.000	41.029	0.100
519.100	34.618	0.100
519.200	36.272	0.100
519.300	47.420	0.100
519.400	55.700	0.100
519.500	35.134	0.100
519.600	25.790	0.100
519.700	48.003	0.100
519.800	58.838	0.100
519.900	36.776	0.100
520.000	38.295	0.100
520.100	49.123	0.100
520.200	49.474	0.100
520.300	41.682	0.100
520.400	40.727	0.100
520.500	36.102	0.100
520.600	34.184	0.100
520.700	20.112	0.100
520.800	34.145	0.100
520.900	50.770	0.100
521.000	38.850	0.100
521.100	35.773	0.100
521.200	35.735	0.100
521.300	29.691	0.100
521.400	52.662	0.100
521.500	25.914	0.100
521.600	36.919	0.100
521.700	44.194	0.100
521.800	26.887	0.100
521.900	29.280	0.100
522.000	38.624	0.100
522.100	52.117	0.100
522.200	43.774	0.100
522.300	32.575	0.100
522.400	40.507	0.100
522.500	64.111	0.100
522.600	36.784	0.100
522.700	31.952	0.100
522.800	40.594	0.100
522.900	43.873	0.100
523.000	38.047	0.100
523.100	30.800	0.100
523.200	48.900	0.100
523.300	40.285	0.100
523.400	45.834	0.100
523.500	36.072	0.100
523.600	37.662	0.100
523.700	36.095	0.100
523.800	54.765	0.100
523.900	17.740	0.100
524.000	49.723	0.100
524.100	28.661	0.100
524.200	44.793	0.100
524.300	35.864	0.100
524.400	24.501	0.100
524.500	25.465	0.100
524.600	29.324	0.100
524.700	47.800	0.100
524.800	48.874	0.100
524.900	35.485	0.100
525.000	30.858	0.100
525.100	33.530	0.100
525.200	38.261	0.100
525.300	37.677	0.100
525.400	32.925	0.100
525.500	42.218	0.100
525.600	34.006	0.100
525.700	44.549	0.100
525.800	38.460	0.100
525.900	28.515	0.100
526.000	39.111	0.100
526.100	32.447	0.100
526.200	42.347	0.100
526.300	16.586	0.100
526.400	46.056	0.100
526.500	38.102	0.100
526.600	28.577	0.100
526.700	15.043	0.100
526.800	19.658	0.100
526.900	47.680	0.100
527.000	30.475	0.100
527.100	34.656	0.100
527.200	29.909	0.100
527.300	36.840	0.100
527.400	39.848	0.100
527.500	32.636	0.100
527.600	36.821	0.100
527.700	43.241	0.100
527.800	25.042	0.100
527.900	42.315	0.100
528.000	34.520	0.100
528.100	54.214	0.100
528.200	40.137	0.100
528.300	37.707	0.100
528.400	43.007	0.100
528.500	40.518	0.100
528.600	51.638	0.100
528.700	37.195	0.100
528.800	26.899	0.100
528.900	23.555	0.100
529.000	39.054	0.100
529.100	42.551	0.100
529.200	39.646	0.100
529.300	45.155	0.100
529.400	41.802	0.100
529.500	39.859	0.100
529.600	37.923	0.100
529.700	35.286	0.100
529.800	39.618	0.100
529.900	48.391	0.100
530.000	30.194	0.100
530.100	21.850	0.100
530.200	39.912	0.100
530.300	43.921	0.100
530.400	38.050	0.100
530.500	26.118	0.100
530.600	38.008	0.100
530.700	40.319	0.100
530.800	34.517	0.100
530.900	45.714	0.100
531.000	34.026	0.100
531.100	34.673	0.100
531.200	36.291	0.100
531.300	37.583	0.100
531.400	36.428	0.100
531.500	31.555	0.100
531.600	52.451	0.100
531.700	41.168	0.100
531.800	31.131	0.100
531.900	30.596	0.100
532.000	20.809	0.100
532.100	22.644	0.100
532.200	57.745	0.100
532.300	52.916	0.100
532.400	42.861	0.100
532.500	20.948	0.100
532.600	37.261	0.100
532.700	51.965	0.100
532.800	29.776	0.100
532.900	23.627	0.100
533.000	23.025	0.100
533.100	27.078	0.100
533.200	32.688	0.100
533.300	35.212	0.100
533.400	45.813	0.100
533.500	49.387	0.100
533.600	26.485	0.100
533.700	47.670	0.100
533.800	49.115	0.100
533.900	35.700	0.100
534.000	17.580	0.100
534.100	27.903	0.100
534.200	23.945	0.100
534.300	31.828	0.100
534.400	31.067	0.100
534.500	30.663	0.100
534.600	30.898	0.100
534.700	42.076	0.100
534.800	31.667	0.100
534.900	27.579	0.100
535.000	37.657	0.100
535.100	42.193	0.100
535.200	39.024	0.100
535.300	34.816	0.100
535.400	45.148	0.100
535.500	33.111	0.100
535.600	37.716	0.100
535.700	47.519	0.100
535.800	25.807	0.100
535.900	25.579	0.100
536.000	29.223	0.100
536.100	41.470	0.100
536.200	48.696	0.100
536.300	42.885	0.100
536.400	28.707	0.100
536.500	47.890	0.100
536.600	40.294	0.100
536.700	46.725	0.100
536.800	36.631	0.100
536.900	25.870	0.100
537.000	42.863	0.100
537.100	33.095	0.100
537.200	30.363	0.100
537.300	32.815	0.100
537.400	32.198	0.100
537.500	15.713	0.100
537.600	35.836	0.100
537.700	17.825	0.100
537.800	35.117	0.100
537.900	39.148	0.100
538.000	45.558	0.100
538.100	42.562	0.100
538.200	32.065	0.100
538.300	37.321	0.100
538.400	27.875	0.100
538.500	26.311	0.100
538.600	32.276	0.100
538.700	42.800	0.100
538.800	18.806	0.100
538.900	23.066	0.100
539.000	54.683	0.100
539.100	33.944	0.100
539.200	36.170	0.100
539.300	48.085	0.100
539.400	16.369	0.100
539.500	35.354	0.100
539.600	50.718	0.100
539.700	29.661	0.100
539.800	44.424	0.100
539.900	31.757	0.100
540.000	20.876	0.100
540.100	30.440	0.100
540.200	45.860	0.100
540.300	45.573	0.100
540.400	32.489	0.100
540.500	29.632	0.100
540.600	14.145	0.100
540.700	39.663	0.100
540.800	45.050	0.100
540.900	14.392	0.100
541.000	34.195	0.100
541.100	18.814	0.100
541.200	24.928	0.100
541.300	-0.468	0.100
541.400	12.403	0.100
541.500	9.784	0.100
541.600	4.297	0.100
541.700	9.484	0.100
541.800	6.672	0.100
541.900	6.200	0.100
542.000	3.705	0.100
542.100	10.422	0.100
542.200	3.165	0.100
542.300	0.264	0.100
542.400	-11.487	0.100
542.500	0.355	0.100
542.600	-13.139	0.100
542.700	19.020	0.100
542.800	-13.884	0.100
542.900	3.610	0.100
543.000	-0.030	0.100
543.100	-14.217	0.100
543.200	5.126	0.100
543.300	-29.187	0.100
543.400	-3.830	0.100
543.500	2.915	0.100
543.600	1.733	0.100
543.700	-16.916	0.100
543.800	-8.137	0.100
543.900	5.880	0.100
544.000	-18.736	0.100
544.100	6.145	0.100
544.200	-5.875	0.100
544.300	-30.446	0.100
544.400	-13.867	0.100
544.500	-12.492	0.100
544.600	-10.914	0.100
544.700	-21.222	0.100
544.800	-2.692	0.100
544.900	-6.529	0.100
545.000	-7.210	0.100
545.100	-17.699	0.100
545.200	-21.485	0.100
545.300	-5.454	0.100
545.400	-22.952	0.100
545.500	-9.250	0.100
545.600	-8.289	0.100
545.700	-6.990	0.100
545.800	-20.751	0.100
545.900	-18.845	0.100
546.000	-22.929	0.100
546.100	-5.811	0.100
546.200	-7.435	0.100
546.300	-15.402	0.100
546.400	6.858	0.100
546.500	-4.006	0.100
546.600	-0.909	0.100
546.700	-20.255	0.100
546.800	-3.755	0.100
546.900	3.182	0.100
547.000	5.157	0.100
547.100	-11.337	0.100
547.200	-21.762	0.100
547.300	-18.841	0.100
547.400	-22.430	0.100
547.500	-7.933	0.100
547.600	15.177	0.100
547.700	-8.158	0.100
547.800	-1.029	0.100
547.900	-7.001	0.100
548.000	-2.547	0.100
548.100	-21.228	0.100
548.200	8.066	0.100
548.300	-8.519	0.100
548.400	-11.190	0.100
548.500	-15.981	0.100
548.600	-13.634	0.100
548.700	-2.722	0.100
548.800	-24.611	0.100
548.900	10.164	0.100
549.000	-10.673	0.100
549.100	-3.019	0.100
549.200	-10.532	0.100
549.300	-10.253	0.100
549.400	-6.754	0.100
549.500	-15.770	0.100
549.600	-20.690	0.100
549.700	-10.304	0.100
549.800	5.694	0.100
549.900	-24.818	0.100
550.000	4.017	0.100
550.100	-1.736	0.100
550.200	3.780	0.100
550.300	4.285	0.100
550.400	-6.437	0.100
550.500	-10.778	0.100
550.600	-21.000	0.100
550.700	-7.013	0.100
550.800	8.466	0.100
550.900	-7.045	0.100
551.000	-15.364	0.100
551.100	-21.838	0.100
551.200	-11.450	0.100
551.300	-1.941	0.100
551.400	-25.793	0.100
551.500	9.561	0.100
551.600	-16.662	0.100
551.700	-6.908	0.100
551.800	-3.984	0.100
551.900	-21.004	0.100
552.000	-14.802	0.100
552.100	1.847	0.100
552.200	-15.597	0.100
552.300	2.547	0.100
552.400	5.969	0.100
552.500	-23.085	0.100
552.600	-5.737	0.100
552.700	-6.278	0.100
552.800	4.931	0.100
552.900	-20.838	0.100
553.000	-1.219	0.100
553.100	0.611	0.100
553.200	-20.361	0.100
553.300	1.441	0.100
553.400	-25.431	0.100
553.500	-5.019	0.100
553.600	-15.560	0.100
553.700	-5.849	0.100
553.800	6.690	0.100
553.900	0.779	0.100
554.000	-14.874	0.100
554.100	-3.058	0.100
554.200	-0.109	0.100
554.300	-20.547	0.100
554.400	-7.642	0.100
554.500	-10.918	0.100
554.600	-14.436	0.100
554.700	-0.688	0.100
554.800	3.610	0.100
554.900	-16.285	0.100
555.000	-6.255	0.100
555.100	-22.148	0.100
555.200	-23.604	0.100
555.300	-18.169	0.100
555.400	-1.000	0.100
555.500	-11.368	0.100
555.600	-12.697	0.100
555.700	-9.425	0.100
555.800	-11.806	0.100
555.900	-1.663	0.100
556.000	-11.973	0.100
556.100	-26.059	0.100
556.200	-15.781	0.100
556.300	-1.063	0.100
556.400	-8.066	0.100
556.500	-5.749	0.100
556.600	-13.784	0.100
556.700	-7.478	0.100
556.800	-14.862	0.100
556.900	-10.272	0.100
557.000	-14.634	0.100
557.100	-1.858	0.100
557.200	-8.049	0.100
557.300	3.905	0.100
557.400	-28.297	0.100
557.500	-7.074	0.100
557.600	-10.299	0.100
557.700	-8.653	0.100
557.800	0.589	0.100
557.900	-3.483	0.100
558.000	-14.879	0.100
558.100	-13.751	0.100
558.200	-14.828	0.100
558.300	-11.769	0.100
558.400	-5.416	0.100
558.500	-12.795	0.100
558.600	-2.915	0.100
558.700	-7.642	0.100
558.800	-38.520	0.100
558.900	12.133	0.100
559.000	-15.461	0.100
559.100	-3.216	0.100
559.200	4.298	0.100
559.300	-9.324	0.100
559.400	0.436	0.100
559.500	-20.852	0.100
559.600	-21.840	0.100
559.700	-9.986	0.100
559.800	-4.516	0.100
559.900	-20.385	0.100
560.000	0.635	0.100
560.100	-10.958	0.100
560.200	-27.373	0.100
560.300	-25.619	0.100
560.400	-8.761	0.100
560.500	12.052	0.100
560.600	-16.672	0.100
560.700	-13.232	0.100
560.800	-15.551	0.100
560.900	-14.138	0.100
561.000	-0.216	0.100
561.100	-17.554	0.100
561.200	-3.941	0.100
561.300	-13.645	0.100
561.400	-34.883	0.100
561.500	-14.889	0.100
561.600	-25.603	0.100
561.700	-15.951	0.100
561.800	-21.884	0.100
561.900	-12.378	0.100
562.000	1.504	0.100
562.100	-8.126	0.100
562.200	-20.988	0.100
562.300	-33.634	0.100
562.400	-10.999	0.100
562.500	0.175	0.100
562.600	-4.062	0.100
562.700	-10.291	0.100
562.800	-26.600	0.100
562.900	-33.151	0.100
563.000	-32.596	0.100
563.100	-1.266	0.100
563.200	4.552	0.100
563.300	-29.834	0.100
563.400	1.062	0.100
563.500	-6.851	0.100
563.600	-28.778	0.100
563.700	-2.897	0.100
563.800	-15.965	0.100
563.900	-19.186	0.100
564.000	-12.926	0.100
564.100	-22.605	0.100
564.200	-6.656	0.100
564.300	-6.336	0.100
564.400	-19.231	0.100
564.500	-5.548	0.100
564.600	-27.867	0.100
564.700	1.635	0.100
564.800	-17.624	0.100
564.900	-17.927	0.100
565.000	-15.065	0.100
565.100	-15.228	0.100
565.200	-10.009	0.100
565.300	-17.472	0.100
565.400	-21.900	0.100
565.500	-18.868	0.100
565.600	-6.478	0.100
565.700	-1.478	0.100
565.800	-13.202	0.100
565.900	-22.605	0.100
566.000	-17.634	0.100
566.100	-37.393	0.100
566.200	9.298	0.100
566.300	-9.632	0.100
566.400	-15.011	0.100
566.500	-13.779	0.100
566.600	-39.745	0.100
566.700	-1.189	0.100
566.800	-18.685	0.100
566.900	-14.699	0.100
567.000	-1.469	0.100
567.100	-26.436	0.100
567.200	-12.159	0.100
567.300	-29.911	0.100
567.400	-8.562	0.100
567.500	-14.342	0.100
567.600	4.324	0.100
567.700	-34.363	0.100
567.800	-11.051	0.099
567.900	-45.131	0.099
568.000	-7.164	0.099
568.100	-26.877	0.099
568.200	-5.792	0.099
568.300	-4.717	0.099
568.400	-20.897	0.099
568.500	-14.329	0.099
568.600	-18.727	0.099
568.700	-1.834	0.099
568.800	-16.636	0.099
568.900	-28.818	0.099
569.000	0.785	0.099
569.100	-13.376	0.099
569.200	-24.314	0.099
569.300	-22.068	0.099
569.400	-15.200	0.099
569.500	-15.240	0.099
569.600	-16.649	0.099
569.700	-18.680	0.099
569.800	-16.482	0.099
569.900	-19.299	0.099
570.000	-25.150	0.099
570.100	-26.019	0.099
570.200	-7.276	0.099
570.300	-24.461	0.099
570.400	-28.718	0.099
570.500	-27.995	0.099
570.600	-14.768	0.099
570.700	11.737	0.099
570.800	-16.889	0.099
570.900	-28.684	0.099
571.000	-41.901	0.099
571.100	-7.435	0.099
571.200	-9.121	0.099
571.300	2.911	0.099
571.400	-27.351	0.099
571.500	-20.805	0.099
571.600	-5.022	0.099
571.700	-10.381	0.099
571.800	-18.541	0.099
571.900	-3.932	0.099
572.000	-22.198	0.099
572.100	-11.778	0.099
572.200	-26.175	0.099
572.300	-5.100	0.099
572.400	-13.319	0.099
572.500	-9.379	0.099
572.600	-14.842	0.099
572.700	-24.015	0.099
572.800	-33.604	0.099
572.900	-16.882	0.099
573.000	0.619	0.099
573.100	-18.687	0.099
573.200	-4.342	0.099
573.300	-19.418	0.099
573.400	-19.961	0.099
573.500	-31.879	0.099
573.600	-10.847	0.099
573.700	-39.072	0.099
573.800	-9.417	0.099
573.900	-19.248	0.099
574.000	-7.249	0.099
574.100	-28.071	0.099
574.200	-35.868	0.099
574.300	2.420	0.099
574.400	-10.610	0.099
574.500	-6.626	0.099
574.600	-14.210	0.099
574.700	-24.653	0.099
574.800	-30.908	0.099
574.900	-25.733	0.099
575.000	-27.714	0.099
575.100	-18.885	0.099
575.200	-29.360	0.099
575.300	-17.735	0.099
575.400	-13.468	0.099
575.500	-31.611	0.099
575.600	-12.874	0.099
575.700	-12.146	0.099
575.800	-18.757	0.099
575.900	-7.032	0.099
576.000	-28.988	0.099
576.100	-9.878	0.099
576.200	-20.403	0.099
576.300	-20.881	0.099
576.400	-14.450	0.099
576.500	-15.079	0.099
576.600	-24.176	0.099
576.700	-11.213	0.099
576.800	-33.308	0.099
576.900	-6.106	0.099
577.000	-18.143	0.099
577.100	-18.988	0.099
577.200	-22.962	0.099
577.300	-13.949	0.099
577.400	-16.799	0.099
577.500	-11.326	0.099
577.600	-23.622	0.099
577.700	-32.820	0.099
577.800	-27.903	0.099
577.900	-31.688	0.099
578.000	-14.591	0.099
578.100	-14.740	0.099
578.200	-22.125	0.099
578.300	-18.779	0.099
578.400	-21.587	0.099
578.500	-16.137	0.099
578.600	-23.858	0.099
578.700	-8.918	0.099
578.800	-24.027	0.099
578.900	-26.251	0.099
579.000	-28.852	0.099
579.100	-29.266	0.099
579.200	-22.108	0.099
579.300	-10.532	0.099
579.400	-27.894	0.099
579.500	-14.497	0.099
579.600	-16.525	0.099
579.700	-41.817	0.099
579.800	-20.537	0.099
579.900	-8.234	0.099
580.000	-12.392	0.099
580.100	-24.591	0.099
580.200	-16.301	0.099
580.300	-21.269	0.099
580.400	-18.858	0.099
580.500	-19.363	0.099
580.600	-13.474	0.099
580.700	-17.736	0.099
580.800	-17.216	0.099
580.900	-20.675	0.099
581.000	-23.987	0.099
581.100	-27.257	0.099
581.200	-0.297	0.099
581.300	-21.788	0.099
581.400	-9.404	0.099
581.500	5.173	0.099
581.600	-21.038	0.099
581.700	-36.817	0.099
581.800	-23.035	0.099
581.900	-11.257	0.099
582.000	-21.039	0.099
582.100	-17.775	0.099
582.200	-32.736	0.099
582.300	-12.013	0.099
582.400	-24.597	0.099
582.500	-28.709	0.099
582.600	-16.264	0.099
582.700	-2.468	0.099
582.800	-23.106	0.099
582.900	-28.084	0.099
583.000	-26.690	0.099
583.100	-8.363	0.099
583.200	-9.138	0.099
583.300	-18.812	0.099
583.400	-14.366	0.099
583.500	-18.234	0.099
583.600	-24.673	0.099
583.700	-8.877	0.099
583.800	-10.172	0.099
583.900	-10.980	0.099
584.000	-22.088	0.099
584.100	-18.220	0.099
584.200	-11.916	0.099
584.300	-13.200	0.099
584.400	-19.669	0.099
584.500	-29.773	0.099
584.600	-38.346	0.099
584.700	-1.223	0.099
584.800	-16.165	0.099
584.900	-4.272	0.099
585.000	-11.730	0.099
585.100	-12.585	0.099
585.200	-15.428	0.099
585.300	-22.707	0.099
585.400	-10.274	0.099
585.500	-30.175	0.099
585.600	-38.101	0.099
585.700	-5.758	0.099
585.800	-14.230	0.099
585.900	-19.135	0.099
586.000	-26.351	0.099
586.100	-8.986	0.099
586.200	-24.145	0.099
586.300	-22.947	0.099
586.400	-8.439	0.099
586.500	-5.159	0.099
586.600	-18.266	0.099
586.700	-15.221	0.099
586.800	-26.064	0.099
586.900	-23.026	0.099
587.000	-17.714	0.099
587.100	-18.450	0.099
587.200	-22.176	0.099
587.300	-40.940	0.100
587.400	-29.791	0.099
587.500	-15.768	0.099
587.600	-6.881	0.100
587.700	-19.845	0.100
587.800	-17.379	0.100
587.900	-20.536	0.100
588.000	-20.407	0.100
588.100	-6.517	0.100
588.200	-13.093	0.100
588.300	-15.491	0.100
588.400	-18.166	0.100
588.500	-20.881	0.100
588.600	-29.373	0.100
588.700	-6.867	0.100
588.800	-23.910	0.100
588.900	-17.713	0.100
589.000	-17.789	0.100
589.100	-30.906	0.100
589.200	-9.841	0.100
589.300	-13.311	0.100
589.400	-16.753	0.100
589.500	-25.328	0.100
589.600	-22.309	0.100
589.700	-51.906	0.100
589.800	-8.976	0.100
589.900	-19.923	0.100
590.000	-28.560	0.099
590.100	-2.655	0.099
590.200	-13.114	0.099
590.300	-10.719	0.100
590.400	-22.293	0.099
590.500	-20.121	0.100
590.600	-0.185	0.100
590.700	-26.465	0.100
590.800	-24.932	0.100
590.900	-18.962	0.100
591.000	-28.170	0.100
591.100	-34.085	0.099
591.200	-12.829	0.099
591.300	-27.920	0.100
591.400	-10.347	0.100
591.500	-19.351	0.100
591.600	-19.002	0.100
591.700	-19.435	0.100
591.800	-9.001	0.100
591.900	-12.990	0.099
592.000	-28.349	0.099
592.100	-19.656	0.100
592.200	-5.438	0.100
592.300	-15.391	0.100
592.400	-18.929	0.100
592.500	-14.992	0.100
592.600	-3.280	0.099
592.700	-9.479	0.100
592.800	-13.026	0.100
592.900	-16.975	0.100
593.000	-0.914	0.100
593.100	-8.386	0.100
593.200	-24.167	0.100
593.300	-26.010	0.100
593.400	-9.768	0.100
593.500	-25.513	0.100
593.600	-2.150	0.100
593.700	-6.405	0.100
593.800	-43.844	0.100
593.900	-30.415	0.100
594.000	-20.710	0.100
594.100	-10.883	0.100
594.200	-3.555	0.100
594.300	-19.170	0.100
594.400	-34.205	0.100
594.500	-18.027	0.100
594.600	-11.294	0.100
594.700	-8.647	0.100
594.800	-27.828	0.100
594.900	-21.056	0.100
595.000	3.325	0.100
595.100	-13.177	0.100
595.200	-23.897	0.100
595.300	-24.731	0.099
595.400	-11.104	0.100
595.500	-19.956	0.100
595.600	-4.046	0.100
595.700	-35.396	0.100
595.800	-24.303	0.099
595.900	-7.606	0.099
596.000	-17.211	0.099
596.100	-14.996	0.100
596.200	-19.794	0.100
596.300	-24.027	0.099
596.400	-27.872	0.099
596.500	-29.290	0.100
596.600	-5.824	0.100
596.700	-3.546	0.100
596.800	-28.522	0.100
596.900	-15.505	0.099
597.000	-1.968	0.100
597.100	-21.578	0.100
597.200	-18.849	0.100
597.300	-24.269	0.100
597.400	-16.790	0.100
597.500	-24.766	0.100
597.600	-18.288	0.100
597.700	-26.232	0.100
597.800	-17.241	0.100
597.900	-1.643	0.099
598.000	-11.527	0.100
598.100	-25.370	0.100
598.200	-13.262	0.100
598.300	-14.598	0.100
598.400	-9.735	0.100
598.500	-26.985	0.100
598.600	-9.519	0.100
598.700	-9.933	0.100
598.800	-31.241	0.100
598.900	-10.912	0.100
599.000	-19.715	0.100
599.100	-22.486	0.099
599.200	-22.725	0.099
599.300	-4.939	0.100
599.400	-5.881	0.100
599.500	-7.450	0.100
599.600	-42.421	0.099
599.700	3.423	0.100
599.800	-17.743	0.099
599.900	-14.172	0.100
600.000	-7.099	0.100
600.100	-30.382	0.099
600.200	-10.046	0.100
600.300	-10.181	0.099
600.400	-29.269	0.100
600.500	-15.612	0.100
600.600	-1.483	0.100
600.700	-23.110	0.100
600.800	-34.301	0.100
600.900	-23.123	0.100
601.000	-30.675	0.099
601.100	-2.669	0.100
601.200	-26.708	0.099
601.300	-19.822	0.100
601.400	-14.711	0.100
601.500	-23.977	0.100
601.600	0.811	0.099
601.700	-35.041	0.100
601.800	-23.136	0.100
601.900	-5.811	0.100
602.000	-26.964	0.100
602.100	-0.197	0.100
602.200	-21.720	0.100
602.300	-27.172	0.100
602.400	-17.245	0.100
602.500	-2.445	0.100
602.600	-10.922	0.100
602.700	-22.249	0.100
602.800	-22.862	0.099
602.900	-32.946	0.099
603.000	-18.211	0.100
603.100	-19.192	0.100
603.200	-20.105	0.100
603.300	-32.620	0.100
603.400	-1.397	0.100
603.500	-15.637	0.100
603.600	-16.609	0.100
603.700	-24.240	0.100
603.800	-7.143	0.100
603.900	-14.561	0.100
604.000	-10.299	0.100
604.100	-27.249	0.100
604.200	-5.601	0.100
604.300	-15.696	0.099
604.400	-19.691	0.100
604.500	-7.044	0.100
604.600	-19.903	0.100
604.700	1.652	0.100
604.800	-6.807	0.100
604.900	-26.743	0.100
605.000	-11.555	0.100
605.100	-6.675	0.099
605.200	-25.375	0.100
605.300	-4.826	0.100
605.400	-12.567	0.099
605.500	-15.484	0.100
605.600	-17.847	0.100
605.700	-13.876	0.100
605.800	-20.684	0.100
605.900	-39.366	0.100
606.000	-21.800	0.100
606.100	-4.379	0.100
606.200	-8.429	0.100
606.300	-22.463	0.100
606.400	-19.799	0.100
606.500	-29.392	0.100
606.600	-18.763	0.100
606.700	-25.571	0.100
606.800	-20.241	0.100
606.900	-13.700	0.100
607.000	-26.286	0.100
607.100	-29.356	0.100
607.200	-35.525	0.100
607.300	-6.237	0.100
607.400	-5.639	0.100
607.500	-17.510	0.100
607.600	-13.556	0.099
607.700	-23.802	0.100
607.800	-22.274	0.100
607.900	-39.567	0.100
608.000	-29.122	0.100
608.100	-7.014	0.100
608.200	-10.024	0.100
608.300	-15.680	0.100
608.400	-16.261	0.100
608.500	-22.792	0.100
608.600	-19.551	0.100
608.700	-17.459	0.100
608.800	-15.643	0.100
608.900	-15.375	0.100
609.000	-16.987	0.100
609.100	-31.506	0.100
609.200	-24.579	0.100
609.300	-27.329	0.100
609.400	-14.404	0.100
609.500	-10.485	0.100
609.600	-20.966	0.099
609.700	-24.579	0.099
609.800	16.531	0.100
609.900	-23.850	0.100
610.000	-12.728	0.100
610.100	-21.860	0.100
610.200	-6.028	0.100
610.300	-22.076	0.100
610.400	-15.516	0.100
610.500	-12.528	0.100
610.600	-11.801	0.100
610.700	-5.876	0.099
610.800	-15.332	0.100
610.900	-16.335	0.100
611.000	-13.419	0.099
611.100	-25.237	0.100
611.200	-21.546	0.100
611.300	-12.675	0.100
611.400	-1.334	0.100
611.500	-34.398	0.100
611.600	-33.587	0.100
611.700	-5.344	0.100
611.800	-14.967	0.100
611.900	-32.376	0.099
612.000	-16.991	0.100
612.100	-32.343	0.100
612.200	-6.560	0.100
612.300	-13.595	0.100
612.400	-13.195	0.099
612.500	-17.290	0.100
612.600	-9.379	0.100
612.700	-23.543	0.100
612.800	-20.720	0.100
612.900	-27.885	0.100
613.000	-27.640	0.099
613.100	-10.641	0.100
613.200	-24.354	0.100
613.300	-18.706	0.099
613.400	-17.272	0.100
613.500	-9.546	0.100
613.600	7.326	0.100
613.700	-16.842	0.100
613.800	-14.116	0.100
613.900	-22.368	0.100
614.000	-26.087	0.100
614.100	-18.715	0.100
614.200	-9.321	0.100
614.300	2.481	0.100
614.400	-27.470	0.100
614.500	-15.504	0.100
614.600	-8.550	0.100
614.700	-22.597	0.100
614.800	-17.309	0.100
614.900	-22.009	0.100
615.000	-33.864	0.100
615.100	-30.568	0.099
615.200	-6.245	0.100
615.300	-21.408	0.100
615.400	-17.307	0.100
615.500	-7.242	0.100
615.600	-22.361	0.100
615.700	-41.653	0.100
615.800	-17.090	0.100
615.900	-5.832	0.100
616.000	-9.441	0.099
616.100	-25.168	0.100
616.200	-11.124	0.099
616.300	-0.491	0.100
616.400	-22.273	0.100
616.500	-29.159	0.100
616.600	-10.355	0.099
616.700	-18.087	0.099
616.800	-13.820	0.100
616.900	4.166	0.100
617.000	-17.647	0.100
617.100	-9.822	0.100
617.200	-29.033	0.100
617.300	-11.784	0.100
617.400	-20.692	0.100
617.500	-42.877	0.100
617.600	-1.282	0.099
617.700	-10.267	0.100
617.800	-13.724	0.100
617.900	-15.781	0.100
618.000	-21.016	0.099
618.100	-19.708	0.100
618.200	-8.040	0.100
618.300	-5.964	0.100
618.400	-3.981	0.100
618.500	-15.371	0.100
618.600	-19.503	0.100
618.700	-7.566	0.100
618.800	-13.418	0.100
618.900	-10.951	0.100
619.000	-12.271	0.099
619.100	-18.965	0.099
619.200	-24.207	0.100
619.300	-27.588	0.100
619.400	-28.429	0.100
619.500	-3.326	0.100
619.600	-22.078	0.100
619.700	-33.334	0.099
619.800	-8.652	0.099
619.900	-16.011	0.100
620.000	-23.384	0.099
620.100	-9.966	0.099
620.200	-5.857	0.100
620.300	-27.243	0.100
620.400	3.524	0.100
620.500	-26.214	0.100
620.600	-12.201	0.100
620.700	-7.005	0.099
620.800	-6.514	0.099
620.900	2.933	0.100
621.000	-6.815	0.100
621.100	-36.180	0.100
621.200	-16.816	0.100
621.300	-22.080	0.100
621.400	-14.915	0.099
621.500	-25.953	0.099
621.600	-20.130	0.100
621.700	-20.589	0.100
621.800	-2.256	0.100
621.900	9.076	0.100
622.000	-27.032	0.100
622.100	-2.235	0.100
622.200	-11.060	0.100
622.300	-8.784	0.100
622.400	-10.225	0.100
622.500	-3.276	0.100
622.600	-4.002	0.100
622.700	-26.191	0.100
622.800	-3.179	0.100
622.900	-10.719	0.100
623.000	-24.129	0.100
623.100	-21.140	0.100
623.200	-7.946	0.100
623.300	-24.494	0.100
623.400	-9.305	0.100
623.500	-22.096	0.100
623.600	-30.976	0.100
623.700	-16.305	0.100
623.800	0.757	0.100
623.900	-15.686	0.100
624.000	-26.888	0.099
624.100	-14.737	0.100
624.200	1.522	0.100
624.300	12.016	0.100
624.400	-7.175	0.100
624.500	-16.738	0.099
624.600	-23.650	0.100
624.700	-34.642	0.100
624.800	-16.652	0.100
624.900	-15.565	0.100
625.000	-24.695	0.100
625.100	-17.318	0.099
625.200	-20.842	0.100
625.300	-2.590	0.099
625.400	-24.702	0.100
625.500	-7.505	0.100
625.600	-3.266	0.100
625.700	-18.353	0.099
625.800	-26.779	0.100
625.900	-13.232	0.100
626.000	-33.962	0.100
626.100	-9.239	0.100
626.200	-8.465	0.100
626.300	-19.801	0.100
626.400	-34.512	0.100
626.500	7.443	0.100
626.600	-10.457	0.099
626.700	-21.846	0.099
626.800	-15.445	0.100
626.900	-15.995	0.099
627.000	-4.153	0.099
627.100	-4.707	0.099
627.200	-13.115	0.100
627.300	-17.420	0.100
627.400	-12.890	0.100
627.500	-23.386	0.100
627.600	-26.642	0.100
627.700	-4.213	0.099
627.800	-6.798	0.100
627.900	-7.065	0.100
628.000	-16.384	0.099
628.100	-6.119	0.100
628.200	-20.292	0.099
628.300	-20.226	0.100
628.400	-0.379	0.100
628.500	-22.236	0.100
628.600	-20.293	0.099
628.700	-7.326	0.100
628.800	-13.065	0.100
628.900	-23.966	0.100
629.000	-0.598	0.099
629.100	-25.181	0.099
629.200	-9.472	0.100
629.300	-23.033	0.100
629.400	-15.349	0.100
629.500	-8.595	0.100
629.600	-3.660	0.100
629.700	-15.060	0.099
629.800	-24.539	0.099
629.900	-16.030	0.100
630.000	-33.714	0.100
630.100	-13.327	0.100
630.200	-23.193	0.100
630.300	-21.500	0.100
630.400	-10.167	0.100
630.500	-10.440	0.100
630.600	-6.101	0.100
630.700	-9.707	0.100
630.800	-23.297	0.099
630.900	8.439	0.100
631.000	12.685	0.100
631.100	-1.263	0.100
631.200	-13.194	0.100
631.300	-14.292	0.099
631.400	3.632	0.100
631.500	5.463	0.100
631.600	6.239	0.100
631.700	7.700	0.100
631.800	24.912	0.100
631.900	7.028	0.100
632.000	14.153	0.100
632.100	5.076	0.100
632.200	1.550	0.100
632.300	25.174	0.099
632.400	1.828	0.099
632.500	-0.752	0.100
632.600	7.421	0.100
632.700	-0.832	0.100
632.800	8.605	0.100
632.900	22.483	0.099
633.000	-0.675	0.100
633.100	7.711	0.099
633.200	16.424	0.100
633.300	4.853	0.100
633.400	18.657	0.100
633.500	-0.071	0.100
633.600	2.487	0.099
633.700	-1.249	0.100
633.800	11.637	0.100
633.900	32.460	0.100
634.000	21.865	0.099
634.100	17.605	0.100
634.200	2.548	0.100
634.300	16.920	0.099
634.400	14.907	0.100
634.500	-3.619	0.100
634.600	8.719	0.100
634.700	21.148	0.100
634.800	-0.534	0.100
634.900	-7.282	0.100
635.000	22.032	0.100
635.100	-5.117	0.100
635.200	0.466	0.100
635.300	0.255	0.099
635.400	15.478	0.099
635.500	5.103	0.100
635.600	-6.866	0.100
635.700	10.519	0.100
635.800	0.859	0.100
635.900	6.388	0.100
636.000	2.132	0.100
636.100	12.367	0.100
636.200	7.523	0.100
636.300	-0.131	0.100
636.400	0.107	0.100
636.500	-2.742	0.100
636.600	10.058	0.100
636.700	-3.876	0.100
636.800	-10.140	0.100
636.900	0.110	0.100
637.000	17.023	0.100
637.100	-0.949	0.100
637.200	16.190	0.100
637.300	10.185	0.100
637.400	-4.652	0.100
637.500	16.974	0.100
637.600	-3.043	0.100
637.700	12.326	0.100
637.800	9.285	0.100
637.900	37.416	0.100
638.000	6.123	0.100
638.100	10.414	0.100
638.200	5.236	0.100
638.300	2.098	0.100
638.400	20.089	0.100
638.500	8.212	0.100
638.600	21.782	0.100
638.700	-2.921	0.100
638.800	1.339	0.100
638.900	-7.303	0.100
639.000	-0.551	0.100
639.100	17.697	0.100
639.200	10.677	0.100
639.300	16.443	0.100
639.400	4.781	0.100
639.500	16.463	0.099
639.600	18.582	0.100
639.700	16.838	0.100
639.800	9.270	0.100
639.900	1.770	0.100
640.000	1.910	0.100
640.100	8.932	0.100
640.200	7.139	0.100
640.300	21.399	0.100
640.400	24.991	0.100
640.500	3.504	0.100
640.600	15.324	0.100
640.700	13.457	0.099
640.800	-7.671	0.100
640.900	31.352	0.100
641.000	-7.946	0.100
641.100	8.239	0.100
641.200	21.438	0.100
641.300	7.233	0.099
641.400	20.394	0.100
641.500	9.131	0.100
641.600	22.278	0.099
641.700	32.175	0.100
641.800	18.791	0.099
641.900	30.445	0.100
642.000	11.381	0.100
642.100	8.815	0.100
642.200	35.815	0.100
642.300	26.234	0.100
642.400	30.885	0.100
642.500	14.740	0.100
642.600	28.450	0.100
642.700	6.388	0.100
642.800	24.485	0.100
642.900	24.176	0.100
643.000	20.971	0.100
643.100	24.905	0.100
643.200	25.500	0.100
643.300	11.287	0.100
643.400	17.870	0.100
643.500	31.383	0.100
643.600	4.820	0.100
643.700	39.303	0.100
643.800	51.514	0.100
643.900	23.527	0.100
644.000	18.388	0.099
644.100	6.037	0.100
644.200	37.057	0.100
644.300	47.827	0.099
644.400	30.984	0.100
644.500	21.323	0.100
644.600	45.395	0.099
644.700	29.382	0.100
644.800	29.664	0.100
644.900	44.270	0.100
645.000	34.717	0.100
645.100	26.262	0.100
645.200	51.721	0.100
645.300	36.658	0.100
645.400	16.603	0.099
645.500	27.872	0.100
645.600	65.025	0.099
645.700	29.114	0.100
645.800	34.608	0.100
645.900	44.322	0.099
646.000	35.697	0.099
646.100	34.249	0.100
646.200	43.070	0.100
646.300	24.397	0.100
646.400	44.520	0.099
646.500	48.477	0.100
646.600	30.414	0.100
646.700	37.913	0.100
646.800	31.049	0.100
646.900	47.404	0.099
647.000	31.887	0.100
647.100	37.550	0.100
647.200	43.878	0.099
647.300	51.591	0.100
647.400	42.079	0.100
647.500	33.600	0.099
647.600	61.450	0.099
647.700	43.911	0.100
647.800	52.795	0.100
647.900	45.384	0.100
648.000	38.921	0.099
648.100	39.837	0.099
648.200	52.992	0.100
648.300	44.556	0.100
648.400	32.009	0.100
648.500	43.136	0.100
648.600	27.869	0.100
648.700	40.861	0.100
648.800	49.085	0.100
648.900	72.359	0.099
649.000	48.620	0.100
649.100	44.159	0.100
649.200	49.815	0.099
649.300	50.667	0.100
649.400	31.124	0.100
649.500	51.201	0.100
649.600	35.550	0.099
649.700	44.401	0.100
649.800	51.620	0.100
649.900	48.798	0.100
650.000	49.123	0.100
650.100	43.725	0.099
650.200	34.588	0.100
650.300	51.681	0.099
650.400	27.910	0.099
650.500	40.815	0.100
650.600	60.866	0.100
650.700	48.278	0.100
650.800	37.701	0.099
650.900	37.684	0.099
651.000	32.091	0.099
651.100	52.813	0.100
651.200	45.979	0.100
651.300	31.727	0.099
651.400	50.682	0.100
651.500	47.346	0.100
651.600	41.319	0.100
651.700	22.020	0.099
651.800	59.104	0.100
651.900	44.857	0.100
652.000	45.350	0.100
652.100	44.428	0.100
652.200	46.115	0.100
652.300	45.965	0.100
652.400	40.456	0.099
652.500	49.455	0.099
652.600	29.732	0.099
652.700	62.892	0.100
652.800	52.226	0.099
652.900	57.458	0.100
653.000	36.968	0.099
653.100	38.880	0.100
653.200	42.972	0.099
653.300	49.424	0.100
653.400	46.555	0.099
653.500	51.827	0.100
653.600	36.465	0.100
653.700	38.193	0.100
653.800	45.081	0.100
653.900	53.974	0.100
654.000	52.272	0.100
654.100	31.255	0.100
654.200	43.817	0.099
654.300	55.587	0.100
654.400	46.917	0.100
654.500	45.620	0.100
654.600	34.493	0.100
654.700	50.332	0.100
654.800	54.042	0.100
654.900	39.123	0.100
655.000	43.865	0.100
655.100	40.751	0.100
655.200	43.352	0.100
655.300	39.914	0.100
655.400	43.328	0.100
655.500	45.069	0.100
655.600	32.638	0.100
655.700	53.895	0.100
655.800	35.599	0.100
655.900	51.135	0.100
656.000	42.663	0.100
656.100	45.969	0.100
656.200	20.900	0.100
656.300	49.501	0.100
656.400	32.005	0.100
656.500	70.174	0.100
656.600	31.361	0.100
656.700	43.924	0.100
656.800	50.053	0.100
656.900	47.120	0.100
657.000	47.467	0.099
657.100	30.782	0.100
657.200	34.718	0.100
657.300	22.566	0.100
657.400	58.724	0.100
657.500	38.675	0.100
657.600	61.416	0.100
657.700	39.624	0.100
657.800	41.675	0.100
657.900	25.563	0.100
658.000	46.673	0.100
658.100	46.696	0.100
658.200	50.864	0.099
658.300	35.461	0.100
658.400	39.134	0.100
658.500	48.427	0.100
658.600	44.396	0.100
658.700	53.791	0.100
658.800	23.360	0.100
658.900	58.267	0.100
659.000	55.741	0.100
659.100	33.644	0.100
659.200	34.194	0.099
659.300	22.171	0.100
659.400	40.590	0.099
659.500	43.661	0.100
659.600	55.053	0.100
659.700	47.289	0.099
659.800	10.396	0.100
659.900	57.179	0.100
660.000	52.518	0.100
660.100	43.977	0.100
660.200	26.499	0.100
660.300	50.097	0.100
660.400	46.538	0.099
660.500	23.217	0.100
660.600	44.748	0.100
660.700	63.490	0.100
660.800	42.902	0.099
660.900	54.272	0.100
661.000	60.787	0.100
661.100	45.144	0.100
661.200	32.320	0.100
661.300	51.632	0.100
661.400	37.897	0.100
661.500	37.572	0.100
661.600	47.887	0.100
661.700	37.145	0.100
661.800	44.235	0.099
661.900	44.062	0.100
662.000	38.214	0.100
662.100	43.154	0.099
662.200	34.285	0.100
662.300	49.722	0.100
662.400	58.011	0.100
662.500	32.326	0.100
662.600	26.935	0.100
662.700	42.058	0.100
662.800	37.551	0.100
662.900	25.998	0.100
663.000	51.029	0.099
663.100	46.641	0.100
663.200	30.096	0.100
663.300	35.057	0.100
663.400	35.834	0.100
663.500	31.228	0.099
663.600	32.665	0.099
663.700	31.812	0.100
663.800	24.530	0.100
663.900	56.519	0.100
664.000	47.438	0.100
664.100	25.962	0.099
664.200	38.278	0.100
664.300	36.866	0.100
664.400	41.802	0.100
664.500	46.620	0.099
664.600	41.451	0.100
664.700	19.328	0.100
664.800	22.113	0.100
664.900	50.246	0.099
665.000	40.593	0.099
665.100	43.491	0.099
665.200	61.044	0.100
665.300	28.195	0.100
665.400	37.909	0.100
665.500	53.878	0.100
665.600	25.592	0.100
665.700	35.040	0.100
665.800	47.592	0.099
665.900	23.996	0.100
666.000	41.132	0.099
666.100	51.884	0.099
666.200	31.582	0.099
666.300	37.662	0.100
666.400	29.455	0.099
666.500	18.231	0.099
666.600	47.300	0.099
666.700	41.131	0.099
666.800	29.481	0.100
666.900	38.991	0.100
667.000	45.945	0.099
667.100	35.612	0.099
667.200	45.568	0.099
667.300	40.581	0.100
667.400	40.851	0.100
667.500	46.220	0.100
667.600	32.606	0.099
667.700	61.098	0.099
667.800	39.789	0.099
667.900	34.927	0.099
668.000	72.568	0.099
668.100	29.716	0.100
668.200	38.542	0.100
668.300	28.270	0.099
668.400	48.157	0.100
668.500	45.102	0.099
668.600	40.552	0.099
668.700	36.158	0.099
668.800	46.728	0.100
668.900	38.638	0.100
669.000	38.581	0.099
669.100	42.352	0.099
669.200	56.461	0.100
669.300	32.594	0.099
669.400	41.366	0.100
669.500	35.299	0.099
669.600	33.961	0.100
669.700	21.309	0.099
669.800	33.559	0.099
669.900	45.714	0.100
670.000	38.694	0.099
670.100	23.515	0.099
670.200	36.303	0.099
670.300	23.143	0.099
670.400	19.929	0.100
670.500	40.078	0.099
670.600	38.577	0.099
670.700	34.510	0.099
670.800	47.044	0.100
670.900	35.392	0.099
671.000	49.226	0.099
671.100	24.162	0.099
671.200	44.645	0.099
671.300	48.993	0.099
671.400	35.951	0.099
671.500	35.263	0.100
671.600	30.018	0.099
671.700	35.027	0.100
671.800	49.667	0.099
671.900	42.918	0.099
672.000	33.859	0.099
672.100	39.967	0.099
672.200	31.888	0.099
672.300	62.640	0.099
672.400	31.953	0.100
672.500	55.551	0.099
672.600	36.021	0.099
672.700	34.333	0.099
672.800	39.370	0.099
672.900	39.909	0.099
673.000	21.731	0.099
673.100	35.855	0.099
673.200	35.628	0.099
673.300	31.800	0.100
673.400	52.457	0.100
673.500	41.772	0.099
673.600	36.499	0.100
673.700	9.276	0.099
673.800	47.337	0.100
673.900	27.819	0.099
674.000	18.225	0.100
674.100	32.192	0.099
674.200	49.280	0.099
674.300	36.706	0.099
674.400	36.026	0.099
674.500	52.795	0.099
674.600	31.882	0.099
674.700	35.825	0.099
674.800	25.228	0.099
674.900	28.478	0.099
675.000	50.198	0.099
675.100	40.542	0.099
675.200	46.182	0.099
675.300	29.834	0.099
675.400	31.291	0.099
675.500	41.461	0.099
675.600	34.410	0.099
675.700	56.858	0.099
675.800	52.028	0.099
675.900	26.265	0.099
676.000	31.643	0.099
676.100	37.189	0.099
676.200	40.805	0.099
676.300	31.493	0.099
676.400	27.080	0.099
676.500	33.663	0.099
676.600	21.386	0.099
676.700	44.280	0.099
676.800	37.235	0.099
676.900	45.995	0.099
677.000	44.664	0.099
677.100	32.731	0.099
677.200	32.899	0.099
677.300	21.344	0.099
677.400	24.666	0.099
677.500	35.621	0.099
677.600	38.167	0.100
677.700	39.366	0.099
677.800	31.990	0.099
677.900	35.822	0.099
678.000	41.931	0.099
678.100	42.986	0.099
678.200	30.155	0.099
678.300	39.894	0.099
678.400	33.496	0.100
678.500	27.458	0.100
678.600	23.784	0.099
678.700	56.687	0.099
678.800	43.997	0.099
678.900	27.319	0.099
679.000	38.141	0.099
679.100	27.882	0.099
679.200	42.941	0.099
679.300	19.809	0.099
679.400	31.678	0.099
679.500	59.742	0.099
679.600	32.131	0.099
679.700	37.978	0.099
679.800	41.997	0.100
679.900	48.146	0.099
680.000	34.476	0.100
680.100	39.498	0.100
680.200	21.535	0.099
680.300	36.087	0.099
680.400	38.529	0.099
680.500	47.149	0.100
680.600	34.772	0.099
680.700	15.883	0.099
680.800	38.203	0.099
680.900	37.337	0.100
681.000	39.600	0.099
681.100	17.450	0.099
681.200	51.195	0.099
681.300	37.764	0.099
681.400	28.334	0.099
681.500	32.477	0.099
681.600	46.369	0.099
681.700	25.084	0.100
681.800	41.415	0.099
681.900	30.878	0.099
682.000	30.562	0.099
682.100	36.877	0.099
682.200	32.425	0.099
682.300	28.712	0.100
682.400	32.408	0.099
682.500	50.995	0.099
682.600	20.529	0.099
682.700	51.137	0.099
682.800	43.274	0.099
682.900	45.928	0.100
683.000	55.040	0.099
683.100	39.758	0.099
683.200	51.806	0.100
683.300	46.698	0.100
683.400	36.304	0.100
683.500	27.968	0.099
683.600	25.929	0.099
683.700	42.008	0.100
683.800	21.990	0.099
683.900	34.217	0.099
684.000	25.356	0.099
684.100	34.057	0.099
684.200	38.868	0.100
684.300	38.267	0.100
684.400	34.187	0.099
684.500	43.237	0.099
684.600	37.933	0.100
684.700	45.059	0.099
684.800	37.806	0.100
684.900	39.372	0.099
685.000	42.489	0.099
685.100	41.108	0.100
685.200	29.140	0.099
685.300	22.021	0.099
685.400	17.992	0.099
685.500	27.665	0.099
685.600	38.464	0.099
685.700	34.570	0.099
685.800	42.076	0.099
685.900	27.254	0.099
686.000	36.503	0.099
686.100	31.783	0.099
686.200	41.083	0.099
686.300	34.629	0.099
686.400	39.272	0.099
686.500	38.686	0.099
686.600	31.481	0.099
686.700	27.709	0.100
686.800	42.860	0.099
686.900	46.660	0.100
687.000	32.851	0.099
687.100	32.569	0.100
687.200	31.436	0.099
687.300	40.822	0.099
687.400	32.087	0.099
687.500	29.108	0.099
687.600	6.184	0.099
687.700	44.666	0.099
687.800	39.281	0.099
687.900	51.219	0.099
688.000	32.073	0.099
688.100	32.862	0.100
688.200	48.865	0.100
688.300	33.477	0.099
688.400	36.666	0.099
688.500	19.317	0.100
688.600	34.389	0.099
688.700	32.255	0.100
688.800	48.069	0.099
688.900	42.502	0.099
689.000	52.041	0.099
689.100	25.864	0.099
689.200	30.960	0.099
689.300	32.159	0.099
689.400	10.861	0.099
689.500	43.416	0.099
689.600	19.865	0.099
689.700	26.890	0.099
689.800	45.123	0.100
689.900	49.119	0.099
690.000	19.988	0.099
690.100	33.485	0.099
690.200	32.070	0.099
690.300	23.938	0.099
690.400	27.958	0.099
690.500	39.015	0.099
690.600	29.514	0.099
690.700	30.309	0.099
690.800	39.392	0.099
690.900	42.898	0.099
691.000	5.595	0.099
691.100	4.113	0.099
691.200	30.069	0.099
691.300	13.821	0.099
691.400	22.074	0.099
691.500	13.043	0.100
691.600	-8.834	0.099
691.700	-3.897	0.099
691.800	5.902	0.099
691.900	5.627	0.099
692.000	-1.203	0.099
692.100	-0.945	0.099
692.200	-1.556	0.099
692.300	8.252	0.099
692.400	-10.863	0.099
692.500	-1.649	0.099
692.600	7.169	0.099
692.700	-1.679	0.099
692.800	-19.317	0.099
692.900	-2.669	0.100
693.000	-20.975	0.100
693.100	-5.393	0.099
693.200	-14.797	0.099
693.300	-3.609	0.099
693.400	-15.663	0.099
693.500	-2.688	0.099
693.600	-7.128	0.099
693.700	-7.987	0.099
693.800	-9.344	0.099
693.900	-14.098	0.100
694.000	-2.058	0.099
694.100	-14.779	0.099
694.200	-6.945	0.100
694.300	-9.004	0.099
694.400	-9.966	0.099
694.500	-8.994	0.099
694.600	-9.939	0.099
694.700	-4.312	0.099
694.800	-7.881	0.100
694.900	-9.537	0.099
695.000	6.332	0.099
695.100	-10.987	0.100
695.200	-21.507	0.099
695.300	-10.885	0.099
695.400	-5.368	0.099
695.500	-5.294	0.099
695.600	-0.903	0.099
695.700	-11.010	0.099
695.800	-18.332	0.099
695.900	0.220	0.099
696.000	-33.095	0.099
696.100	-17.879	0.099
696.200	0.304	0.099
696.300	-5.928	0.099
696.400	-6.484	0.099
696.500	0.781	0.099
696.600	-25.836	0.099
696.700	4.511	0.099
696.800	-11.537	0.099
696.900	-18.953	0.099
697.000	1.774	0.100
697.100	-17.995	0.100
697.200	-8.719	0.099
697.300	-21.910	0.099
697.400	-15.351	0.099
697.500	14.774	0.099
697.600	-20.358	0.099
697.700	-1.863	0.099
697.800	-6.001	0.100
697.900	-3.458	0.100
698.000	-10.125	0.100
698.100	-9.413	0.100
698.200	-22.501	0.099
698.300	-16.279	0.099
698.400	-7.212	0.099
698.500	-27.954	0.099
698.600	8.002	0.099
698.700	-12.576	0.099
698.800	-2.039	0.099
698.900	-14.865	0.099
699.000	-4.621	0.099
699.100	5.924	0.100
699.200	-17.965	0.099
699.300	8.236	0.100
699.400	-25.257	0.099
699.500	-22.971	0.099
699.600	-5.106	0.099
699.700	-3.613	0.099
699.800	-6.833	0.100
699.900	-11.660	0.100
700.000	-4.288	0.099
700.100	-18.055	0.099
700.200	0.535	0.099
700.300	18.184	0.100
700.400	9.424	0.100
700.500	-15.088	0.100
700.600	-2.359	0.099
700.700	7.359	0.099
700.800	-10.116	0.100
700.900	-5.912	0.099
701.000	-24.739	0.100
701.100	8.119	0.100
701.200	-15.401	0.100
701.300	-5.164	0.099
701.400	-12.679	0.099
701.500	-10.980	0.099
701.600	-20.789	0.100
701.700	-7.370	0.100
701.800	-17.946	0.100
701.900	-17.251	0.099
702.000	-16.790	0.100
702.100	-13.704	0.099
702.200	-3.265	0.100
702.300	4.987	0.100
702.400	-12.019	0.100
702.500	-18.989	0.099
702.600	-15.815	0.099
702.700	-19.092	0.099
702.800	3.298	0.099
702.900	-28.131	0.099
703.000	-2.278	0.099
703.100	-2.257	0.099
703.200	-11.603	0.099
703.300	-12.592	0.099
703.400	-5.922	0.100
703.500	-14.942	0.100
703.600	-17.791	0.099
703.700	-14.986	0.100
703.800	-16.984	0.100
703.900	0.912	0.099
704.000	-14.254	0.099
704.100	-17.927	0.100
704.200	9.557	0.099
704.300	-14.503	0.100
704.400	-3.445	0.100
704.500	-7.927	0.099
704.600	-12.616	0.099
704.700	-19.492	0.099
704.800	2.374	0.099
704.900	-4.514	0.099
705.000	-7.975	0.099
705.100	-34.613	0.099
705.200	-16.695	0.100
705.300	3.728	0.100
705.400	-18.145	0.099
705.500	3.896	0.099
705.600	-10.764	0.099
705.700	-23.178	0.099
705.800	-22.025	0.099
705.900	-16.748	0.099
706.000	0.216	0.100
706.100	-9.848	0.099
706.200	-17.827	0.100
706.300	-21.896	0.100
706.400	6.276	0.100
706.500	-3.219	0.100
706.600	-9.048	0.100
706.700	-16.163	0.099
706.800	-24.273	0.099
706.900	-14.409	0.100
707.000	-23.941	0.099
707.100	-9.679	0.099
707.200	-21.411	0.100
707.300	-15.253	0.099
707.400	-12.690	0.099
707.500	-9.898	0.099
707.600	-15.874	0.099
707.700	-6.856	0.100
707.800	-15.680	0.099
707.900	-23.247	0.099
708.000	8.930	0.099
708.100	-24.075	0.099
708.200	-20.289	0.099
708.300	-12.141	0.099
708.400	-8.109	0.099
708.500	-12.136	0.100
708.600	-21.810	0.099
708.700	-14.848	0.099
708.800	3.711	0.100
708.900	-10.470	0.100
709.000	-22.817	0.100
709.100	-20.981	0.099
709.200	-15.285	0.100
709.300	-5.757	0.099
709.400	-18.927	0.100
709.500	-16.580	0.100
709.600	-10.557	0.100
709.700	-10.943	0.100
709.800	-10.914	0.099
709.900	-12.922	0.099
710.000	-12.356	0.100
710.100	-27.064	0.099
710.200	-20.685	0.099
710.300	-15.315	0.099
710.400	-22.491	0.100
710.500	-15.473	0.100
710.600	5.581	0.099
710.700	-24.379	0.099
710.800	-10.829	0.099
710.900	-18.498	0.099
711.000	-18.810	0.099
711.100	-16.129	0.099
711.200	-22.273	0.099
711.300	1.717	0.099
711.400	-16.003	0.100
711.500	-19.531	0.099
711.600	-7.242	0.099
711.700	-17.238	0.099
711.800	-0.409	0.100
711.900	-30.151	0.099
712.000	-29.679	0.099
712.100	-1.580	0.099
712.200	-3.664	0.099
712.300	-20.332	0.100
712.400	-18.117	0.099
712.500	-14.004	0.100
712.600	-9.796	0.100
712.700	-19.953	0.100
712.800	-18.060	0.099
712.900	-18.592	0.099
713.000	-10.025	0.099
713.100	-19.353	0.099
713.200	-5.027	0.099
713.300	-8.676	0.099
713.400	-22.280	0.099
713.500	1.768	0.099
713.600	-24.614	0.099
713.700	-12.487	0.099
713.800	-24.948	0.099
713.900	-13.967	0.100
714.000	-14.079	0.099
714.100	-12.617	0.100
714.200	-9.713	0.099
714.300	-20.758	0.099
714.400	-20.065	0.099
714.500	-4.161	0.100
714.600	-14.560	0.099
714.700	-16.101	0.099
714.800	-25.142	0.100
714.900	-33.950	0.099
715.000	-16.919	0.099
715.100	-7.620	0.099
715.200	-16.620	0.100
715.300	-28.206	0.099
715.400	-20.595	0.100
715.500	-10.902	0.100
715.600	-22.785	0.099
715.700	-18.645	0.099
715.800	-35.289	0.099
715.900	-19.118	0.099
716.000	-21.776	0.099
716.100	-18.065	0.100
716.200	-16.564	0.100
716.300	-30.831	0.100
716.400	-13.513	0.100
716.500	-17.343	0.099
716.600	-5.001	0.100
716.700	-16.450	0.100
716.800	-32.132	0.100
716.900	-22.732	0.100
717.000	-27.936	0.099
717.100	-16.814	0.100
717.200	-14.841	0.100
717.300	-29.814	0.100
717.400	-33.278	0.099
717.500	-20.819	0.100
717.600	-29.796	0.100
717.700	-33.708	0.099
717.800	-15.319	0.099
717.900	1.146	0.100
718.000	-1.043	0.099
718.100	-23.637	0.100
718.200	-15.768	0.100
718.300	-30.659	0.099
718.400	-10.071	0.099
718.500	-7.540	0.099
718.600	-17.896	0.100
718.700	-33.609	0.100
718.800	-21.039	0.100
718.900	-15.371	0.099
719.000	-31.222	0.099
719.100	-13.499	0.100
719.200	-19.762	0.100
719.300	-19.170	0.100
719.400	-14.319	0.099
719.500	-33.706	0.100
719.600	-17.300	0.100
719.700	-14.766	0.100
719.800	-13.541	0.100
719.900	-13.373	0.099
720.000	-18.449	0.100
720.100	-22.968	0.100
720.200	-19.616	0.100
720.300	-35.825	0.100
720.400	-10.964	0.100
720.500	-20.953	0.100
720.600	-21.792	0.099
720.700	-18.801	0.100
720.800	-10.515	0.099
720.900	-26.722	0.099
721.000	-21.292	0.100
721.100	-8.410	0.100
721.200	-7.595	0.100
721.300	-10.877	0.099
721.400	3.581	0.100
721.500	-36.722	0.099
721.600	-16.719	0.099
721.700	-20.735	0.100
721.800	-15.096	0.100
721.900	-16.510	0.099
722.000	-30.641	0.099
722.100	-11.283	0.099
722.200	-14.121	0.099
722.300	-17.550	0.100
722.400	-37.321	0.100
722.500	-14.345	0.100
722.600	-27.434	0.100
722.700	-9.761	0.100
722.800	-8.998	0.100
722.900	-33.355	0.100
723.000	-9.658	0.100
723.100	-18.512	0.099
723.200	-27.413	0.100
723.300	-10.732	0.100
723.400	-23.747	0.100
723.500	-10.605	0.100
723.600	-20.503	0.100
723.700	-26.316	0.100
723.800	-35.506	0.100
723.900	-0.132	0.100
724.000	-26.909	0.100
724.100	-29.268	0.100
724.200	-20.449	0.100
724.300	-6.899	0.100
724.400	-25.284	0.100
724.500	-21.967	0.100
724.600	-19.290	0.100
724.700	-28.736	0.099
724.800	-13.309	0.100
724.900	-11.890	0.100
725.000	-30.494	0.100
725.100	-21.522	0.100
725.200	-14.089	0.099
725.300	-7.103	0.099
725.400	-26.236	0.100
725.500	-14.245	0.100
725.600	-21.237	0.100
725.700	-13.982	0.099
725.800	-24.102	0.100
725.900	-11.386	0.100
726.000	-17.619	0.100
726.100	-22.124	0.100
726.200	-34.558	0.100
726.300	-23.502	0.100
726.400	-18.349	0.100
726.500	-25.391	0.100
726.600	-16.609	0.099
726.700	-11.730	0.100
726.800	-31.283	0.099
726.900	-16.257	0.099
727.000	1.247	0.100
727.100	-21.582	0.100
727.200	-45.046	0.099
727.300	-21.517	0.099
727.400	-0.322	0.099
727.500	-14.725	0.100
727.600	-24.885	0.099
727.700	-14.329	0.100
727.800	-8.741	0.100
727.900	-23.938	0.100
728.000	-33.659	0.100
728.100	-24.106	0.099
728.200	-18.252	0.100
728.300	-16.695	0.099
728.400	-8.980	0.100
728.500	-18.343	0.100
728.600	-23.156	0.100
728.700	-15.688	0.100
728.800	-30.450	0.100
728.900	-13.519	0.099
729.000	-8.025	0.100
729.100	-9.912	0.099
729.200	-16.544	0.100
729.300	-19.364	0.100
729.400	-27.272	0.100
729.500	-25.959	0.100
729.600	-15.914	0.100
729.700	-29.693	0.100
729.800	-32.304	0.100
729.900	-16.167	0.100
730.000	-23.999	0.100
730.100	-19.293	0.100
730.200	-12.219	0.099
730.300	-23.479	0.099
730.400	-24.081	0.100
730.500	-1.821	0.100
730.600	-17.635	0.099
730.700	-23.133	0.100
730.800	-21.267	0.100
730.900	-20.158	0.099
731.000	-32.616	0.099
731.100	-5.130	0.100
731.200	-17.846	0.100
731.300	-20.157	0.100
731.400	-15.848	0.100
731.500	-45.842	0.100
731.600	-29.883	0.100
731.700	-16.302	0.100
731.800	-22.872	0.100
731.900	-16.424	0.100
732.000	-12.996	0.099
732.100	-3.950	0.100
732.200	-27.065	0.100
732.300	-28.995	0.100
732.400	-24.974	0.100
732.500	4.371	0.100
732.600	-1.878	0.100
732.700	-16.548	0.100
732.800	-13.422	0.100
732.900	-27.450	0.100
733.000	-15.190	0.100
733.100	-25.033	0.100
733.200	-13.437	0.100
733.300	-23.748	0.100
733.400	-25.774	0.099
733.500	-38.937	0.100
733.600	-1.652	0.100
733.700	-6.340	0.100
733.800	-24.966	0.100
733.900	-16.053	0.100
734.000	-15.623	0.099
734.100	-20.137	0.100
734.200	-14.749	0.100
734.300	-32.986	0.100
734.400	-10.993	0.100
734.500	-24.735	0.100
734.600	-17.438	0.100
734.700	-14.809	0.100
734.800	-37.587	0.100
734.900	-20.239	0.100
735.000	-20.821	0.100
735.100	-43.789	0.100
735.200	-14.685	0.100
735.300	10.216	0.100
735.400	-25.093	0.100
735.500	-31.390	0.100
735.600	-10.277	0.100
735.700	-15.637	0.100
735.800	-32.328	0.100
735.900	-13.007	0.100
736.000	-18.061	0.099
736.100	-15.366	0.100
736.200	-14.616	0.100
736.300	-24.382	0.100
736.400	-5.067	0.100
736.500	-33.680	0.100
736.600	-27.208	0.100
736.700	-17.889	0.100
736.800	-6.698	0.099
736.900	-9.862	0.100
737.000	-28.199	0.099
737.100	-17.388	0.100
737.200	-14.786	0.100
737.300	-18.325	0.100
737.400	-21.716	0.100
737.500	-11.436	0.099
737.600	-32.464	0.100
737.700	-24.051	0.099
737.800	-10.154	0.099
737.900	-12.425	0.100
738.000	-6.657	0.100
738.100	-25.825	0.100
738.200	-19.448	0.099
738.300	-23.989	0.100
738.400	-18.273	0.100
738.500	-12.344	0.100
738.600	-0.914	0.100
738.700	-25.466	0.100
738.800	-25.398	0.100
738.900	-23.645	0.100
739.000	-20.487	0.100
739.100	-13.606	0.099
739.200	-26.401	0.100
739.300	-6.693	0.100
739.400	-15.289	0.100
739.500	-15.772	0.100
739.600	-15.332	0.100
739.700	-29.068	0.100
739.800	-16.409	0.100
739.900	-23.050	0.100
740.000	-27.646	0.099
740.100	-17.679	0.100
740.200	-26.677	0.100
740.300	-15.630	0.100
740.400	-14.054	0.100
740.500	-33.570	0.099
740.600	3.783	0.099
740.700	-25.435	0.100
740.800	-14.800	0.100
740.900	-18.177	0.100
741.000	-25.747	0.099
741.100	-24.078	0.100
741.200	-16.486	0.099
741.300	-6.506	0.099
741.400	-14.928	0.099
741.500	-52.721	0.099
741.600	-15.223	0.099
741.700	-13.297	0.100
741.800	-7.658	0.099
741.900	-23.366	0.100
742.000	-24.359	0.100
742.100	-31.498	0.099
742.200	5.170	0.100
742.300	-10.182	0.100
742.400	-24.892	0.100
742.500	-9.605	0.100
742.600	-9.949	0.100
742.700	-15.746	0.100
742.800	-20.319	0.100
742.900	-7.587	0.100
743.000	-13.918	0.100
743.100	-6.426	0.100
743.200	-42.876	0.100
743.300	-17.965	0.100
743.400	-9.887	0.100
743.500	-12.106	0.099
743.600	-26.820	0.100
743.700	-21.587	0.100
743.800	-20.028	0.099
743.900	-31.427	0.099
744.000	-10.945	0.099
744.100	-15.302	0.099
744.200	-6.328	0.099
744.300	-39.291	0.100
744.400	5.686	0.099
744.500	-14.610	0.100
744.600	-20.825	0.100
744.700	-26.470	0.100
744.800	-3.762	0.100
744.900	-23.964	0.100
745.000	-33.664	0.100
745.100	-16.527	0.100
745.200	-31.686	0.100
745.300	-18.701	0.100
745.400	5.398	0.100
745.500	-18.856	0.100
745.600	-50.382	0.099
745.700	-13.203	0.099
745.800	-11.851	0.099
745.900	-23.608	0.099
746.000	-11.772	0.100
746.100	-16.443	0.100
746.200	-32.011	0.099
746.300	-21.013	0.099
746.400	-22.102	0.099
746.500	-10.216	0.100
746.600	-25.902	0.099
746.700	-6.208	0.099
746.800	-24.984	0.100
746.900	-6.276	0.100
747.000	-21.735	0.100
747.100	-21.890	0.099
747.200	-13.346	0.099
747.300	-25.320	0.099
747.400	-24.339	0.100
747.500	-15.781	0.100
747.600	-23.195	0.100
747.700	-13.982	0.100
747.800	-12.257	0.099
747.900	0.010	0.099
748.000	-32.181	0.100
748.100	-24.401	0.099
748.200	-38.098	0.099
748.300	-19.071	0.099
748.400	-16.551	0.099
748.500	-29.001	0.100
748.600	-16.191	0.099
748.700	-20.790	0.100
748.800	-6.865	0.100
748.900	-28.518	0.100
749.000	-9.901	0.099
749.100	-12.886	0.099
749.200	-33.254	0.100
749.300	-15.897	0.100
749.400	-21.617	0.099
749.500	-22.499	0.099
749.600	-17.374	0.099
749.700	-9.472	0.100
749.800	-30.050	0.100
749.900	6.825	0.100
750.000	-20.360	0.100
750.100	-19.199	0.099
750.200	-10.458	0.099
750.300	-15.562	0.099
750.400	-7.771	0.099
750.500	-9.523	0.100
750.600	-21.351	0.100
750.700	-17.450	0.100
750.800	-13.609	0.100
750.900	-39.059	0.099
751.000	-9.587	0.099
751.100	-15.304	0.099
751.200	-42.582	0.099
751.300	-10.678	0.099
751.400	-3.748	0.099
751.500	-18.681	0.099
751.600	-11.678	0.099
751.700	-25.959	0.100
751.800	-30.851	0.099
751.900	-12.280	0.100
752.000	-23.043	0.099
752.100	1.986	0.099
752.200	-19.894	0.099
752.300	-23.787	0.099
752.400	-17.994	0.099
752.500	-15.236	0.099
752.600	-18.167	0.099
752.700	-3.534	0.099
752.800	-6.314	0.099
752.900	-36.946	0.100
753.000	-15.629	0.099
753.100	-21.089	0.099
753.200	-21.256	0.099
753.300	-19.471	0.099
753.400	-24.380	0.099
753.500	-12.919	0.099
753.600	-30.102	0.099
753.700	-16.383	0.099
753.800	-3.100	0.100
753.900	-0.960	0.100
754.000	-31.429	0.100
754.100	-22.773	0.100
754.200	-5.561	0.099
754.300	-20.671	0.100
754.400	-8.430	0.100
754.500	-13.978	0.100
754.600	-28.642	0.100
754.700	-11.407	0.100
754.800	-14.737	0.100
754.900	-14.115	0.100
755.000	-6.417	0.100
755.100	-21.934	0.099
755.200	-13.922	0.100
755.300	-14.548	0.099
755.400	-18.027	0.100
755.500	-19.136	0.100
755.600	-30.588	0.099
755.700	-22.959	0.100
755.800	-21.117	0.100
755.900	-4.998	0.100
756.000	-14.740	0.100
756.100	-15.384	0.100
756.200	-33.546	0.099
756.300	-14.836	0.099
756.400	-5.950	0.100
756.500	-32.002	0.099
756.600	0.117	0.100
756.700	-21.240	0.099
756.800	-19.800	0.100
756.900	-19.468	0.099
757.000	-22.738	0.100
757.100	-7.910	0.100
757.200	-9.100	0.100
757.300	-15.140	0.100
757.400	-21.987	0.100
757.500	-16.649	0.099
757.600	-31.439	0.100
757.700	-8.711	0.100
757.800	-8.569	0.099
757.900	-19.394	0.099
758.000	-27.497	0.099
758.100	-3.344	0.100
758.200	-17.522	0.099
758.300	-18.431	0.100
758.400	-15.071	0.099
758.500	-29.845	0.099
758.600	-18.305	0.099
758.700	-38.377	0.099
758.800	-13.404	0.099
758.900	-4.808	0.099
759.000	-35.785	0.099
759.100	-8.501	0.099
759.200	-17.582	0.099
759.300	-20.536	0.100
759.400	-28.327	0.099
759.500	-12.519	0.100
759.600	-2.846	0.100
759.700	-17.707	0.099
759.800	-23.870	0.100
759.900	-22.090	0.099
760.000	-20.011	0.100
760.100	-31.927	0.100
760.200	-16.206	0.100
760.300	-31.526	0.100
760.400	-2.259	0.100
760.500	-12.188	0.100
760.600	-16.174	0.100
760.700	-17.529	0.100
760.800	-19.832	0.100
760.900	-7.104	0.100
761.000	-7.707	0.100
761.100	-28.840	0.099
761.200	-11.523	0.100
761.300	-11.686	0.100
761.400	-12.333	0.100
761.500	-38.503	0.099
761.600	-7.725	0.100
761.700	-4.285	0.099
761.800	-14.690	0.100
761.900	-12.293	0.100
762.000	-21.110	0.100
762.100	-13.275	0.100
762.200	2.386	0.100
762.300	-26.537	0.100
762.400	-20.741	0.100
762.500	-23.008	0.099
762.600	-28.290	0.100
762.700	-5.934	0.100
762.800	-3.936	0.100
762.900	-25.984	0.100
763.000	-19.733	0.100
763.100	-25.117	0.100
763.200	-18.935	0.099
763.300	-28.982	0.099
763.400	-4.899	0.100
763.500	-14.589	0.100
763.600	-27.741	0.100
763.700	-8.186	0.100
763.800	-16.504	0.100
763.900	-34.949	0.100
764.000	-22.128	0.099
764.100	-7.241	0.100
764.200	-11.395	0.100
764.300	-16.545	0.099
764.400	-8.863	0.100
764.500	-22.255	0.100
764.600	-29.104	0.100
764.700	-16.938	0.100
764.800	-29.787	0.099
764.900	-12.911	0.099
765.000	-17.273	0.100
765.100	-14.816	0.100
765.200	-28.586	0.099
765.300	-9.727	0.100
765.400	-16.874	0.100
765.500	-21.139	0.100
765.600	-16.865	0.099
765.700	-20.722	0.099
765.800	-11.221	0.100
765.900	-19.304	0.099
766.000	-30.516	0.100
766.100	-6.707	0.100
766.200	-24.719	0.100
766.300	-32.875	0.099
766.400	-18.847	0.100
766.500	-15.285	0.100
766.600	-12.786	0.100
766.700	-28.970	0.100
766.800	-12.186	0.100
766.900	-9.575	0.100
767.000	-15.336	0.100
767.100	-38.086	0.099
767.200	-21.687	0.100
767.300	-16.740	0.099
767.400	-12.558	0.099
767.500	-9.061	0.099
767.600	-22.767	0.100
767.700	-3.592	0.099
767.800	-26.719	0.100
767.900	-16.340	0.100
768.000	-8.199	0.099
768.100	-33.442	0.099
768.200	-16.599	0.100
768.300	3.583	0.100
768.400	-5.108	0.100
768.500	-8.656	0.100
768.600	-9.344	0.100
768.700	-4.000	0.099
768.800	-6.577	0.099
768.900	-25.459	0.099
769.000	-12.924	0.099
769.100	-17.530	0.100
769.200	-18.532	0.100
769.300	-18.896	0.100
769.400	-1.660	0.099
769.500	-15.441	0.099
769.600	-16.427	0.099
769.700	-28.216	0.099
769.800	-30.802	0.100
769.900	-18.648	0.099
770.000	-25.892	0.099
770.100	-21.281	0.100
770.200	-2.822	0.099
770.300	-25.486	0.100
770.400	-1.794	0.099
770.500	-17.415	0.100
770.600	-25.360	0.100
770.700	-15.873	0.100
770.800	-15.439	0.100
770.900	-37.422	0.099
771.000	-27.205	0.100
771.100	-6.974	0.100
771.200	-18.348	0.099
771.300	-17.967	0.100
771.400	-10.932	0.099
771.500	-11.966	0.099
771.600	-0.388	0.100
771.700	-33.524	0.100
771.800	-19.200	0.099
771.900	-7.483	0.099
772.000	5.945	0.100
772.100	-21.030	0.099
772.200	-10.187	0.099
772.300	-10.008	0.099
772.400	-32.120	0.099
772.500	-19.166	0.099
772.600	-14.589	0.100
772.700	-21.226	0.099
772.800	-22.655	0.099
772.900	-1.841	0.099
773.000	-11.162	0.100
773.100	-19.940	0.099
773.200	-23.672	0.099
773.300	-19.326	0.099
773.400	-13.165	0.100
773.500	-35.847	0.099
773.600	-15.742	0.099
773.700	-13.594	0.099
773.800	-23.660	0.099
773.900	-13.355	0.099
774.000	-12.006	0.100
774.100	-24.362	0.099
774.200	-15.880	0.100
774.300	-22.124	0.100
774.400	-42.876	0.099
774.500	-24.625	0.100
774.600	-17.505	0.099
774.700	-29.221	0.099
774.800	-28.168	0.100
774.900	-1.773	0.099
775.000	-14.667	0.100
775.100	-15.683	0.099
775.200	-8.114	0.099
775.300	-6.622	0.100
775.400	-41.165	0.099
775.500	-27.581	0.099
775.600	0.238	0.100
775.700	-14.237	0.099
775.800	-11.487	0.099
775.900	-3.856	0.099
776.000	-12.580	0.100
776.100	-29.079	0.099
776.200	-4.467	0.100
776.300	-28.397	0.100
776.400	-17.159	0.099
776.500	-5.698	0.100
776.600	-20.567	0.099
776.700	-28.825	0.099
776.800	-7.431	0.099
776.900	-7.374	0.100
777.000	-18.040	0.100
777.100	-5.290	0.099
777.200	-20.528	0.100
777.300	-18.635	0.100
777.400	-11.601	0.099
777.500	-22.725	0.099
777.600	-18.598	0.099
777.700	-22.504	0.100
777.800	-16.079	0.099
777.900	-15.766	0.099
778.000	-21.812	0.099
778.100	-3.189	0.099
778.200	-5.784	0.100
778.300	-16.263	0.099
778.400	-18.391	0.099
778.500	-8.781	0.100
778.600	-9.361	0.100
778.700	-19.934	0.100
778.800	-26.717	0.100
778.900	-4.202	0.099
779.000	-29.513	0.099
779.100	-13.966	0.100
779.200	-23.025	0.100
779.300	7.690	0.100
779.400	-24.491	0.100
779.500	-0.348	0.099
779.600	-6.900	0.100
779.700	-16.051	0.100
779.800	-8.876	0.099
779.900	-21.966	0.100
780.000	-24.977	0.100
780.100	-19.298	0.099
780.200	5.128	0.100
780.300	-20.773	0.100
780.400	-35.179	0.099
780.500	-11.652	0.099
780.600	-9.947	0.099
780.700	-17.820	0.100
780.800	6.216	0.100
780.900	-20.229	0.100
781.000	-0.424	0.100
781.100	-9.213	0.099
781.200	2.775	0.100
781.300	11.680	0.100
781.400	-2.232	0.099
781.500	18.689	0.100
781.600	-7.445	0.099
781.700	-1.921	0.100
781.800	5.144	0.100
781.900	7.310	0.100
782.000	17.937	0.100
782.100	-12.589	0.100
782.200	11.204	0.100
782.300	8.615	0.100
782.400	-9.617	0.100
782.500	17.827	0.099
782.600	17.270	0.100
782.700	9.479	0.099
782.800	12.838	0.100
782.900	-18.480	0.099
783.000	21.409	0.099
783.100	29.794	0.099
783.200	9.381	0.100
783.300	-0.625	0.099
783.400	-10.093	0.100
783.500	7.725	0.100
783.600	10.545	0.099
783.700	-0.219	0.099
783.800	20.098	0.099
783.900	0.848	0.100
784.000	15.432	0.099
784.100	23.749	0.099
784.200	14.695	0.099
784.300	11.445	0.099
784.400	21.444	0.099
784.500	21.665	0.099
784.600	2.261	0.099
784.700	18.101	0.099
784.800	5.755	0.100
784.900	-12.551	0.099
785.000	-3.955	0.100
785.100	32.713	0.099
785.200	-13.538	0.100
785.300	-1.981	0.099
785.400	12.351	0.100
785.500	-0.695	0.100
785.600	-0.700	0.100
785.700	0.062	0.100
785.800	11.113	0.100
785.900	10.525	0.100
786.000	-18.096	0.100
786.100	15.318	0.099
786.200	4.981	0.099
786.300	9.284	0.099
786.400	-3.323	0.100
786.500	5.663	0.100
786.600	-7.080	0.100
786.700	9.117	0.100
786.800	9.110	0.099
786.900	12.095	0.099
787.000	1.718	0.099
787.100	1.930	0.099
787.200	29.929	0.100
787.300	7.099	0.099
787.400	2.057	0.100
787.500	6.470	0.100
787.600	13.969	0.100
787.700	2.001	0.100
787.800	5.373	0.099
787.900	8.128	0.099
788.000	12.006	0.100
788.100	-6.578	0.099
788.200	20.357	0.099
788.300	-9.992	0.099
788.400	2.807	0.100
788.500	8.041	0.099
788.600	22.204	0.099
788.700	-9.204	0.100
788.800	9.522	0.099
788.900	4.566	0.099
789.000	7.828	0.099
789.100	14.011	0.099
789.200	-2.190	0.099
789.300	3.216	0.099
789.400	12.793	0.099
789.500	8.964	0.099
789.600	0.461	0.099
789.700	14.526	0.099
789.800	9.792	0.099
789.900	9.704	0.099
790.000	15.349	0.099
790.100	15.912	0.099
790.200	-3.452	0.099
790.300	2.413	0.099
790.400	17.592	0.099
790.500	10.674	0.099
790.600	12.998	0.099
790.700	14.054	0.100
790.800	7.146	0.099
790.900	17.080	0.099
791.000	6.967	0.099
791.100	19.935	0.099
791.200	26.418	0.100
791.300	16.537	0.099
791.400	12.526	0.099
791.500	12.906	0.099
791.600	24.749	0.099
791.700	14.975	0.099
791.800	33.211	0.100
791.900	23.254	0.099
792.000	29.251	0.100
792.100	13.606	0.100
792.200	19.867	0.099
792.300	11.258	0.099
792.400	14.192	0.099
792.500	22.241	0.099
792.600	31.018	0.099
792.700	12.378	0.099
792.800	17.682	0.099
792.900	16.081	0.099
793.000	29.560	0.099
793.100	29.698	0.099
793.200	31.403	0.099
793.300	18.294	0.099
793.400	42.454	0.099
793.500	26.041	0.099
793.600	27.166	0.099
793.700	27.694	0.099
793.800	34.108	0.099
793.900	22.405	0.099
794.000	33.812	0.099
794.100	41.099	0.099
794.200	26.259	0.099
794.300	17.935	0.099
794.400	23.036	0.099
794.500	52.650	0.099
794.600	24.568	0.099
794.700	20.721	0.099
794.800	38.846	0.100
794.900	36.331	0.099
795.000	30.654	0.099
795.100	30.573	0.099
795.200	31.325	0.099
795.300	39.800	0.099
795.400	25.669	0.099
795.500	37.223	0.099
795.600	42.126	0.099
795.700	50.011	0.100
795.800	45.106	0.099
795.900	17.034	0.099
796.000	48.367	0.099
796.100	43.668	0.099
796.200	65.496	0.100
796.300	35.997	0.099
796.400	41.931	0.099
796.500	42.755	0.099
796.600	46.171	0.100
796.700	43.889	0.099
796.800	45.864	0.099
796.900	48.467	0.099
797.000	36.495	0.099
797.100	38.890	0.099
797.200	40.312	0.099
797.300	54.873	0.099
797.400	51.392	0.099
797.500	41.375	0.099
797.600	45.218	0.099
797.700	44.021	0.099
797.800	45.557	0.099
797.900	45.433	0.099
798.000	40.000	0.099
798.100	53.155	0.099
798.200	47.555	0.099
798.300	49.287	0.099
798.400	45.614	0.099
798.500	62.740	0.099
798.600	49.807	0.100
798.700	56.071	0.099
798.800	64.332	0.099
798.900	45.987	0.099
799.000	30.441	0.099
799.100	43.811	0.099
799.200	37.833	0.099
799.300	48.897	0.099
799.400	28.664	0.099
799.500	44.347	0.099
799.600	48.028	0.099
799.700	23.566	0.099
799.800	41.334	0.099
799.900	52.147	0.099
800.000	58.759	0.099
