time /s	I /nA	E /V
0.100	-9.070	0.100
0.200	-12.430	0.100
0.300	-18.814	0.100
0.400	-5.253	0.100
0.500	-3.322	0.100
0.600	-8.276	0.100
0.700	-11.404	0.100
0.800	-6.503	0.100
0.900	-14.967	0.100
1.000	-7.587	0.100
1.100	-20.283	0.100
1.200	-11.321	0.100
1.300	-3.456	0.100
1.400	-5.290	0.100
1.500	-10.708	0.100
1.600	-19.343	0.100
1.700	-12.496	0.100
1.800	-13.586	0.100
1.900	-6.571	0.100
2.000	-2.822	0.100
2.100	-21.340	0.100
2.200	-11.316	0.100
2.300	-9.535	0.100
2.400	0.244	0.100
2.500	-13.581	0.100
2.600	-5.647	0.100
2.700	-10.139	0.100
2.800	-2.315	0.100
2.900	-16.071	0.100
3.000	-6.426	0.100
3.100	-14.771	0.100
3.200	-5.711	0.100
3.300	-18.428	0.100
3.400	-4.127	0.100
3.500	-8.853	0.100
3.600	-11.723	0.100
3.700	0.360	0.100
3.800	-0.353	0.100
3.900	-11.400	0.100
4.000	-11.074	0.100
4.100	-26.818	0.100
4.200	-11.340	0.100
4.300	-12.302	0.100
4.400	-8.052	0.100
4.500	0.379	0.100
4.600	-1.468	0.100
4.700	-8.750	0.100
4.800	-22.768	0.100
4.900	-18.401	0.100
5.000	-6.078	0.100
5.100	-9.315	0.100
5.200	-12.961	0.100
5.300	-5.006	0.100
5.400	-3.285	0.100
5.500	-21.854	0.100
5.600	-17.302	0.100
5.700	-14.346	0.100
5.800	1.284	0.100
5.900	9.179	0.100
6.000	-18.579	0.100
6.100	-1.430	0.100
6.200	-8.756	0.100
6.300	-23.565	0.100
6.400	-10.436	0.100
6.500	-9.258	0.100
6.600	-11.995	0.100
6.700	-22.558	0.100
6.800	-5.698	0.100
6.900	-6.349	0.100
7.000	-5.926	0.100
7.100	-2.497	0.101
7.200	-14.907	0.100
7.300	-5.608	0.100
7.400	-25.727	0.100
7.500	-8.494	0.100
7.600	-4.798	0.100
7.700	-14.584	0.100
7.800	-0.232	0.101
7.900	-10.623	0.100
8.000	-9.600	0.100
8.100	-4.066	0.100
8.200	-4.381	0.100
8.300	-13.687	0.100
8.400	-16.142	0.100
8.500	-8.375	0.100
8.600	-3.933	0.100
8.700	-3.794	0.100
8.800	-12.677	0.100
8.900	-13.379	0.100
9.000	1.005	0.100
9.100	-1.580	0.100
9.200	-10.677	0.100
9.300	-0.367	0.100
9.400	-11.131	0.100
9.500	-18.004	0.100
9.600	1.541	0.100
9.700	-0.688	0.100
9.800	-21.132	0.100
9.900	-2.818	0.100
10.000	-3.230	0.100
10.100	-13.846	0.100
10.200	-14.809	0.100
10.300	-3.099	0.100
10.400	-13.862	0.100
10.500	-15.690	0.100
10.600	-12.079	0.100
10.700	-2.579	0.101
10.800	-15.607	0.100
10.900	-0.799	0.100
11.000	-15.142	0.100
11.100	-22.377	0.100
11.200	-8.331	0.100
11.300	-7.921	0.100
11.400	-2.068	0.100
11.500	-12.024	0.100
11.600	3.601	0.100
11.700	-0.430	0.100
11.800	-14.546	0.100
11.900	-10.999	0.100
12.000	-12.614	0.100
12.100	-14.549	0.100
12.200	-21.563	0.100
12.300	-5.120	0.100
12.400	-24.647	0.100
12.500	-3.347	0.100
12.600	-14.939	0.100
12.700	-2.862	0.100
12.800	-16.842	0.100
12.900	-3.191	0.100
13.000	-3.454	0.101
13.100	-23.521	0.100
13.200	-12.708	0.100
13.300	-10.618	0.100
13.400	-6.490	0.100
13.500	-21.625	0.100
13.600	-4.198	0.100
13.700	-10.194	0.100
13.800	-13.754	0.100
13.900	-4.490	0.100
14.000	-33.252	0.100
14.100	-6.759	0.100
14.200	-8.905	0.100
14.300	1.144	0.100
14.400	-7.791	0.100
14.500	-18.545	0.100
14.600	-15.029	0.100
14.700	-11.947	0.100
14.800	-8.871	0.100
14.900	-2.037	0.100
15.000	-11.986	0.100
15.100	-1.812	0.100
15.200	1.676	0.100
15.300	-19.971	0.100
15.400	-7.996	0.100
15.500	-7.765	0.100
15.600	-13.491	0.100
15.700	-13.740	0.100
15.800	-3.735	0.100
15.900	-7.816	0.100
16.000	-13.806	0.100
16.100	-11.318	0.100
16.200	-5.597	0.100
16.300	-14.548	0.100
16.400	-7.071	0.100
16.500	-8.331	0.100
16.600	-10.204	0.100
16.700	-9.954	0.100
16.800	-17.229	0.100
16.900	-16.596	0.100
17.000	7.657	0.100
17.100	-2.293	0.100
17.200	-20.128	0.100
17.300	-15.405	0.100
17.400	-17.133	0.100
17.500	-7.711	0.100
17.600	-9.822	0.100
17.700	-13.326	0.100
17.800	-14.716	0.100
17.900	7.636	0.100
18.000	-10.674	0.100
18.100	-29.793	0.100
18.200	-11.533	0.100
18.300	-18.388	0.100
18.400	-0.489	0.100
18.500	-5.304	0.100
18.600	-4.317	0.100
18.700	-21.357	0.100
18.800	1.109	0.100
18.900	-5.489	0.100
19.000	-6.032	0.100
19.100	-23.023	0.100
19.200	-2.720	0.100
19.300	-1.526	0.100
19.400	-4.955	0.100
19.500	-19.980	0.100
19.600	-18.301	0.100
19.700	-24.136	0.100
19.800	-3.724	0.100
19.900	-0.567	0.100
20.000	-12.314	0.100
20.100	0.528	0.100
20.200	-6.275	0.100
20.300	-8.449	0.100
20.400	-14.822	0.100
20.500	-10.422	0.100
20.600	-7.090	0.100
20.700	-4.147	0.100
20.800	-5.178	0.100
20.900	-10.134	0.100
21.000	-15.900	0.100
21.100	-2.584	0.100
21.200	7.871	0.100
21.300	-8.665	0.100
21.400	0.243	0.100
21.500	-24.775	0.100
21.600	-13.282	0.100
21.700	-13.372	0.100
21.800	-10.037	0.100
21.900	2.203	0.100
22.000	-24.014	0.100
22.100	-7.034	0.100
22.200	-9.951	0.100
22.300	-9.368	0.100
22.400	-5.097	0.100
22.500	-5.295	0.100
22.600	-11.380	0.100
22.700	-4.826	0.100
22.800	-0.144	0.100
22.900	-4.084	0.100
23.000	-3.748	0.100
23.100	-15.336	0.100
23.200	-9.144	0.100
23.300	-4.431	0.100
23.400	-14.259	0.100
23.500	-1.142	0.100
23.600	-8.166	0.100
23.700	-14.375	0.100
23.800	-7.176	0.100
23.900	-9.003	0.100
24.000	-1.592	0.100
24.100	-17.374	0.100
24.200	-6.348	0.100
24.300	-6.802	0.100
24.400	-13.956	0.100
24.500	-24.118	0.100
24.600	-6.509	0.100
24.700	-9.062	0.100
24.800	1.744	0.100
24.900	-19.713	0.100
25.000	-4.456	0.100
25.100	-15.962	0.100
25.200	-13.719	0.100
25.300	-8.733	0.100
25.400	-5.517	0.100
25.500	-5.234	0.100
25.600	-12.803	0.100
25.700	-14.391	0.100
25.800	5.138	0.100
25.900	-13.193	0.100
26.000	-11.593	0.100
26.100	-8.066	0.100
26.200	-7.181	0.100
26.300	-20.935	0.100
26.400	-0.990	0.100
26.500	-19.087	0.100
26.600	-9.246	0.100
26.700	-2.765	0.100
26.800	-7.342	0.100
26.900	-3.870	0.100
27.000	-27.488	0.100
27.100	-8.698	0.100
27.200	-0.361	0.100
27.300	-10.281	0.100
27.400	-12.814	0.100
27.500	-1.104	0.100
27.600	-7.645	0.100
27.700	-1.385	0.100
27.800	-7.793	0.100
27.900	-7.048	0.100
28.000	-5.184	0.100
28.100	-20.018	0.100
28.200	-2.890	0.100
28.300	-9.999	0.100
28.400	-15.740	0.100
28.500	-17.862	0.100
28.600	-9.152	0.100
28.700	2.056	0.100
28.800	-2.750	0.100
28.900	-27.911	0.100
29.000	-10.576	0.100
29.100	-4.007	0.100
29.200	-15.199	0.100
29.300	-19.615	0.100
29.400	-10.799	0.100
29.500	1.130	0.100
29.600	-12.723	0.100
29.700	-8.937	0.100
29.800	-17.055	0.100
29.900	-0.418	0.100
30.000	0.775	0.100
30.100	-6.377	0.100
30.200	6.405	0.100
30.300	-5.530	0.100
30.400	-7.112	0.100
30.500	-1.995	0.100
30.600	-8.821	0.100
30.700	5.420	0.100
30.800	2.934	0.100
30.900	4.421	0.100
31.000	-7.815	0.100
31.100	-2.907	0.100
31.200	9.404	0.100
31.300	3.261	0.100
31.400	9.296	0.100
31.500	6.541	0.100
31.600	6.938	0.100
31.700	0.110	0.100
31.800	-6.917	0.100
31.900	5.886	0.100
32.000	4.487	0.100
32.100	2.645	0.100
32.200	6.386	0.100
32.300	-1.460	0.100
32.400	16.189	0.100
32.500	9.621	0.100
32.600	-1.218	0.100
32.700	11.526	0.100
32.800	3.940	0.100
32.900	4.017	0.100
33.000	21.063	0.100
33.100	-2.563	0.100
33.200	-0.004	0.100
33.300	6.101	0.100
33.400	-4.264	0.100
33.500	21.995	0.100
33.600	5.614	0.100
33.700	4.704	0.100
33.800	0.964	0.100
33.900	-0.479	0.100
34.000	4.215	0.100
34.100	8.547	0.100
34.200	-5.253	0.100
34.300	10.812	0.100
34.400	13.195	0.100
34.500	8.663	0.100
34.600	-4.565	0.100
34.700	0.065	0.100
34.800	13.199	0.100
34.900	3.516	0.100
35.000	5.796	0.100
35.100	-13.169	0.100
35.200	2.217	0.100
35.300	2.791	0.100
35.400	11.292	0.100
35.500	2.428	0.100
35.600	6.185	0.100
35.700	14.436	0.100
35.800	14.024	0.100
35.900	-4.445	0.100
36.000	18.400	0.100
36.100	13.462	0.100
36.200	6.282	0.100
36.300	13.978	0.100
36.400	24.044	0.100
36.500	-1.642	0.100
36.600	16.378	0.100
36.700	-2.664	0.100
36.800	6.239	0.100
36.900	5.650	0.100
37.000	16.009	0.100
37.100	1.977	0.100
37.200	11.629	0.100
37.300	-2.449	0.100
37.400	7.774	0.100
37.500	-1.675	0.100
37.600	2.964	0.100
37.700	17.114	0.100
37.800	11.279	0.100
37.900	3.619	0.100
38.000	10.554	0.100
38.100	1.832	0.100
38.200	4.037	0.100
38.300	7.092	0.100
38.400	14.024	0.100
38.500	18.266	0.100
38.600	13.550	0.100
38.700	6.599	0.100
38.800	0.279	0.100
38.900	16.326	0.100
39.000	1.951	0.100
39.100	12.169	0.100
39.200	1.760	0.100
39.300	17.184	0.100
39.400	20.818	0.100
39.500	10.020	0.100
39.600	10.689	0.100
39.700	5.628	0.101
39.800	15.318	0.100
39.900	3.130	0.100
40.000	8.491	0.100
40.100	-0.446	0.100
40.200	11.635	0.100
40.300	8.103	0.100
40.400	0.479	0.100
40.500	19.462	0.100
40.600	13.978	0.100
40.700	10.825	0.101
40.800	14.896	0.100
40.900	0.232	0.100
41.000	27.394	0.100
41.100	-1.332	0.100
41.200	7.506	0.100
41.300	14.052	0.100
41.400	5.731	0.100
41.500	6.114	0.100
41.600	10.051	0.100
41.700	0.595	0.100
41.800	3.156	0.100
41.900	16.238	0.100
42.000	10.670	0.100
42.100	3.042	0.100
42.200	14.654	0.100
42.300	10.808	0.100
42.400	15.642	0.100
42.500	5.651	0.100
42.600	13.035	0.100
42.700	13.207	0.100
42.800	12.280	0.100
42.900	3.179	0.100
43.000	-3.409	0.100
43.100	6.674	0.100
43.200	4.845	0.100
43.300	10.894	0.100
43.400	9.504	0.100
43.500	22.871	0.100
43.600	12.134	0.100
43.700	18.766	0.100
43.800	16.920	0.100
43.900	19.606	0.100
44.000	20.424	0.100
44.100	21.790	0.100
44.200	9.264	0.101
44.300	11.192	0.100
44.400	7.674	0.100
44.500	4.443	0.100
44.600	25.039	0.100
44.700	8.414	0.100
44.800	4.175	0.100
44.900	11.807	0.100
45.000	3.323	0.100
45.100	28.459	0.100
45.200	10.515	0.100
45.300	12.077	0.100
45.400	11.258	0.100
45.500	13.470	0.100
45.600	4.295	0.100
45.700	8.723	0.100
45.800	11.564	0.100
45.900	8.300	0.100
46.000	11.745	0.100
46.100	12.914	0.100
46.200	11.365	0.100
46.300	12.853	0.100
46.400	22.482	0.101
46.500	24.262	0.100
46.600	17.404	0.101
46.700	12.302	0.100
46.800	10.008	0.100
46.900	6.125	0.100
47.000	1.585	0.100
47.100	18.896	0.100
47.200	4.187	0.100
47.300	8.906	0.100
47.400	6.012	0.100
47.500	10.547	0.100
47.600	-6.008	0.100
47.700	22.035	0.100
47.800	19.150	0.100
47.900	9.574	0.100
48.000	13.447	0.100
48.100	21.133	0.100
48.200	17.887	0.100
48.300	24.278	0.100
48.400	20.505	0.100
48.500	18.523	0.100
48.600	4.022	0.100
48.700	29.128	0.100
48.800	13.587	0.100
48.900	24.659	0.100
49.000	12.564	0.100
49.100	7.058	0.100
49.200	18.241	0.100
49.300	14.991	0.100
49.400	12.943	0.100
49.500	20.004	0.100
49.600	7.208	0.100
49.700	17.474	0.100
49.800	21.703	0.100
49.900	15.882	0.100
50.000	4.279	0.100
50.100	17.940	0.100
50.200	0.035	0.100
50.300	16.727	0.100
50.400	16.523	0.100
50.500	6.016	0.100
50.600	19.782	0.100
50.700	23.510	0.100
50.800	15.051	0.100
50.900	18.671	0.100
51.000	7.978	0.100
51.100	21.345	0.100
51.200	8.338	0.100
51.300	4.225	0.101
51.400	5.121	0.100
51.500	21.142	0.100
51.600	11.943	0.100
51.700	13.931	0.100
51.800	21.545	0.100
51.900	16.490	0.100
52.000	26.424	0.100
52.100	16.256	0.100
52.200	20.074	0.100
52.300	10.031	0.100
52.400	12.703	0.100
52.500	9.361	0.100
52.600	19.865	0.100
52.700	13.223	0.100
52.800	5.963	0.100
52.900	20.066	0.100
53.000	10.016	0.100
53.100	12.198	0.100
53.200	4.174	0.100
53.300	14.491	0.100
53.400	18.718	0.100
53.500	6.630	0.100
53.600	24.564	0.100
53.700	18.999	0.100
53.800	16.932	0.100
53.900	16.035	0.100
54.000	13.522	0.100
54.100	15.255	0.100
54.200	28.076	0.100
54.300	12.914	0.100
54.400	20.336	0.100
54.500	4.526	0.100
54.600	9.861	0.100
54.700	26.136	0.100
54.800	18.714	0.100
54.900	9.800	0.100
55.000	24.859	0.100
55.100	-0.709	0.100
55.200	13.655	0.100
55.300	21.044	0.100
55.400	21.384	0.100
55.500	19.114	0.100
55.600	16.345	0.100
55.700	11.618	0.100
55.800	15.968	0.100
55.900	14.022	0.100
56.000	24.361	0.100
56.100	25.727	0.100
56.200	17.197	0.100
56.300	12.372	0.100
56.400	11.487	0.100
56.500	16.310	0.100
56.600	20.216	0.100
56.700	36.675	0.100
56.800	26.862	0.100
56.900	26.549	0.100
57.000	16.332	0.100
57.100	12.920	0.101
57.200	18.248	0.100
57.300	28.882	0.100
57.400	20.613	0.100
57.500	12.979	0.100
57.600	16.916	0.100
57.700	24.928	0.100
57.800	12.582	0.100
57.900	21.558	0.100
58.000	23.164	0.100
58.100	21.349	0.100
58.200	1.181	0.100
58.300	13.414	0.100
58.400	25.551	0.100
58.500	15.353	0.100
58.600	25.816	0.100
58.700	3.163	0.100
58.800	26.715	0.100
58.900	21.674	0.100
59.000	14.207	0.100
59.100	28.530	0.100
59.200	15.550	0.100
59.300	21.353	0.100
59.400	28.853	0.100
59.500	14.890	0.100
59.600	20.427	0.100
59.700	17.939	0.100
59.800	21.228	0.100
59.900	22.284	0.100
60.000	17.453	0.100
60.100	17.176	0.100
60.200	15.388	0.100
60.300	25.158	0.100
60.400	19.629	0.100
60.500	32.480	0.100
60.600	12.610	0.100
60.700	27.007	0.100
60.800	21.585	0.100
60.900	26.066	0.100
61.000	19.688	0.100
61.100	18.069	0.100
61.200	16.197	0.100
61.300	13.683	0.100
61.400	21.541	0.100
61.500	25.742	0.100
61.600	23.797	0.100
61.700	21.513	0.100
61.800	16.188	0.100
61.900	30.993	0.100
62.000	13.621	0.100
62.100	26.093	0.100
62.200	30.785	0.100
62.300	11.805	0.100
62.400	14.062	0.100
62.500	18.525	0.100
62.600	19.950	0.100
62.700	20.505	0.100
62.800	12.104	0.100
62.900	27.633	0.100
63.000	9.651	0.100
63.100	19.031	0.100
63.200	13.877	0.100
63.300	8.884	0.100
63.400	15.918	0.100
63.500	13.854	0.100
63.600	24.131	0.100
63.700	24.644	0.100
63.800	18.951	0.100
63.900	6.414	0.100
64.000	21.245	0.100
64.100	15.867	0.100
64.200	11.964	0.100
64.300	27.495	0.100
64.400	10.698	0.100
64.500	26.506	0.100
64.600	18.253	0.100
64.700	19.256	0.100
64.800	25.332	0.100
64.900	22.946	0.100
65.000	20.359	0.100
65.100	23.757	0.100
65.200	16.940	0.100
65.300	28.795	0.100
65.400	14.078	0.100
65.500	25.625	0.100
65.600	19.073	0.100
65.700	20.103	0.100
65.800	15.964	0.100
65.900	19.366	0.100
66.000	31.159	0.100
66.100	31.624	0.100
66.200	33.626	0.100
66.300	14.190	0.100
66.400	28.044	0.100
66.500	23.804	0.100
66.600	22.482	0.100
66.700	9.816	0.100
66.800	9.597	0.100
66.900	28.343	0.100
67.000	25.070	0.100
67.100	14.911	0.100
67.200	13.963	0.100
67.300	30.586	0.100
67.400	28.442	0.100
67.500	18.117	0.100
67.600	15.521	0.100
67.700	31.112	0.100
67.800	8.988	0.100
67.900	17.417	0.100
68.000	10.755	0.100
68.100	22.427	0.100
68.200	18.282	0.100
68.300	36.279	0.100
68.400	26.662	0.100
68.500	9.133	0.100
68.600	18.330	0.100
68.700	34.129	0.100
68.800	19.500	0.100
68.900	27.106	0.100
69.000	29.149	0.100
69.100	30.962	0.100
69.200	16.726	0.100
69.300	15.668	0.100
69.400	18.222	0.100
69.500	16.739	0.100
69.600	38.387	0.100
69.700	30.565	0.100
69.800	8.269	0.100
69.900	17.571	0.100
70.000	37.034	0.100
70.100	24.945	0.100
70.200	26.815	0.100
70.300	16.581	0.100
70.400	17.178	0.100
70.500	26.515	0.100
70.600	9.351	0.100
70.700	29.345	0.100
70.800	30.533	0.100
70.900	18.545	0.100
71.000	22.631	0.100
71.100	26.220	0.100
71.200	26.057	0.100
71.300	21.014	0.100
71.400	32.065	0.100
71.500	23.740	0.100
71.600	7.901	0.100
71.700	13.991	0.100
71.800	29.738	0.100
71.900	27.814	0.100
72.000	9.473	0.100
72.100	26.332	0.100
72.200	29.516	0.100
72.300	5.924	0.100
72.400	31.396	0.100
72.500	29.520	0.100
72.600	20.441	0.100
72.700	27.737	0.100
72.800	10.367	0.100
72.900	37.062	0.100
73.000	29.100	0.100
73.100	31.799	0.100
73.200	13.637	0.100
73.300	29.966	0.100
73.400	22.664	0.100
73.500	17.288	0.100
73.600	16.204	0.100
73.700	27.698	0.100
73.800	21.758	0.100
73.900	28.028	0.100
74.000	30.517	0.100
74.100	21.971	0.100
74.200	23.186	0.100
74.300	18.089	0.100
74.400	19.912	0.100
74.500	25.415	0.100
74.600	42.912	0.100
74.700	5.178	0.100
74.800	25.989	0.100
74.900	24.386	0.100
75.000	16.415	0.100
75.100	24.517	0.100
75.200	24.111	0.100
75.300	20.963	0.100
75.400	21.285	0.100
75.500	32.490	0.100
75.600	35.741	0.101
75.700	14.150	0.100
75.800	22.126	0.100
75.900	11.890	0.100
76.000	36.720	0.100
76.100	37.076	0.100
76.200	18.019	0.100
76.300	16.052	0.100
76.400	22.607	0.100
76.500	12.723	0.100
76.600	35.582	0.100
76.700	8.529	0.100
76.800	26.321	0.100
76.900	14.471	0.100
77.000	19.116	0.100
77.100	36.419	0.100
77.200	28.454	0.100
77.300	23.491	0.100
77.400	33.855	0.100
77.500	30.886	0.100
77.600	22.401	0.100
77.700	18.666	0.100
77.800	32.843	0.100
77.900	28.244	0.100
78.000	26.643	0.100
78.100	33.553	0.100
78.200	13.912	0.100
78.300	30.713	0.100
78.400	28.803	0.100
78.500	29.629	0.100
78.600	29.079	0.100
78.700	30.391	0.100
78.800	18.685	0.100
78.900	19.593	0.100
79.000	26.939	0.100
79.100	24.067	0.100
79.200	24.963	0.100
79.300	27.473	0.100
79.400	32.175	0.100
79.500	35.593	0.100
79.600	24.552	0.100
79.700	23.371	0.100
79.800	31.431	0.100
79.900	19.952	0.100
80.000	40.482	0.100
80.100	25.945	0.100
80.200	14.941	0.100
80.300	18.587	0.100
80.400	37.701	0.100
80.500	14.894	0.100
80.600	20.313	0.100
80.700	25.997	0.100
80.800	18.544	0.100
80.900	28.754	0.100
81.000	30.628	0.100
81.100	20.030	0.100
81.200	27.333	0.100
81.300	10.079	0.100
81.400	30.540	0.100
81.500	22.784	0.100
81.600	21.959	0.100
81.700	30.278	0.100
81.800	26.522	0.100
81.900	17.462	0.100
82.000	30.025	0.100
82.100	32.448	0.100
82.200	19.418	0.100
82.300	19.690	0.100
82.400	27.529	0.100
82.500	27.993	0.100
82.600	25.161	0.100
82.700	24.307	0.100
82.800	16.546	0.100
82.900	22.474	0.100
83.000	26.819	0.100
83.100	21.665	0.100
83.200	22.770	0.100
83.300	32.760	0.100
83.400	29.582	0.100
83.500	36.427	0.100
83.600	32.148	0.100
83.700	28.978	0.100
83.800	19.503	0.100
83.900	28.346	0.100
84.000	19.250	0.100
84.100	35.442	0.100
84.200	16.293	0.100
84.300	19.878	0.100
84.400	18.983	0.100
84.500	26.033	0.100
84.600	23.730	0.100
84.700	29.795	0.100
84.800	25.494	0.100
84.900	14.000	0.100
85.000	5.654	0.100
85.100	30.359	0.100
85.200	29.879	0.101
85.300	15.953	0.100
85.400	28.441	0.100
85.500	18.487	0.100
85.600	36.814	0.100
85.700	26.855	0.100
85.800	29.747	0.101
85.900	26.802	0.100
86.000	20.673	0.100
86.100	30.208	0.100
86.200	29.066	0.101
86.300	31.511	0.100
86.400	24.752	0.100
86.500	8.309	0.100
86.600	23.228	0.100
86.700	36.181	0.101
86.800	31.224	0.100
86.900	24.396	0.100
87.000	18.072	0.100
87.100	16.802	0.100
87.200	29.555	0.101
87.300	18.727	0.100
87.400	24.404	0.100
87.500	17.505	0.100
87.600	25.257	0.100
87.700	35.230	0.100
87.800	22.525	0.100
87.900	19.624	0.100
88.000	32.937	0.101
88.100	27.000	0.100
88.200	35.837	0.100
88.300	25.107	0.100
88.400	37.607	0.100
88.500	24.377	0.101
88.600	14.213	0.100
88.700	25.999	0.101
88.800	31.009	0.100
88.900	36.431	0.101
89.000	34.918	0.100
89.100	20.613	0.100
89.200	13.727	0.101
89.300	15.043	0.101
89.400	37.188	0.100
89.500	28.535	0.100
89.600	33.296	0.100
89.700	35.253	0.100
89.800	14.657	0.101
89.900	23.307	0.101
90.000	27.376	0.100
90.100	25.576	0.100
90.200	21.149	0.100
90.300	13.910	0.100
90.400	28.747	0.100
90.500	15.677	0.100
90.600	24.756	0.101
90.700	13.993	0.100
90.800	6.317	0.100
90.900	15.749	0.100
91.000	10.063	0.100
91.100	21.064	0.100
91.200	14.019	0.100
91.300	14.598	0.100
91.400	8.116	0.100
91.500	11.851	0.100
91.600	7.029	0.100
91.700	21.026	0.100
91.800	7.183	0.100
91.900	7.669	0.100
92.000	6.075	0.100
92.100	1.121	0.100
92.200	14.055	0.100
92.300	1.368	0.100
92.400	9.058	0.100
92.500	-2.401	0.100
92.600	14.194	0.100
92.700	7.166	0.100
92.800	3.991	0.100
92.900	0.420	0.100
93.000	11.267	0.100
93.100	5.753	0.100
93.200	13.301	0.100
93.300	-0.645	0.100
93.400	1.815	0.101
93.500	-3.733	0.100
93.600	4.134	0.100
93.700	12.617	0.100
93.800	10.160	0.100
93.900	-0.159	0.100
94.000	7.829	0.100
94.100	7.642	0.100
94.200	-5.519	0.100
94.300	-3.812	0.100
94.400	-5.965	0.100
94.500	25.425	0.100
94.600	-3.084	0.100
94.700	0.585	0.100
94.800	-11.029	0.100
94.900	2.005	0.100
95.000	12.260	0.100
95.100	-0.944	0.100
95.200	-5.651	0.100
95.300	-10.104	0.100
95.400	-16.930	0.100
95.500	5.026	0.100
95.600	1.409	0.100
95.700	-1.992	0.100
95.800	-9.736	0.100
95.900	3.431	0.100
96.000	-0.193	0.100
96.100	-4.652	0.100
96.200	-9.278	0.100
96.300	6.165	0.100
96.400	5.198	0.100
96.500	-6.858	0.100
96.600	4.526	0.100
96.700	-2.306	0.100
96.800	-2.353	0.100
96.900	-11.918	0.100
97.000	-3.311	0.100
97.100	-9.989	0.100
97.200	0.071	0.100
97.300	-4.981	0.100
97.400	-12.884	0.100
97.500	0.916	0.100
97.600	-7.710	0.100
97.700	-12.604	0.100
97.800	-2.979	0.100
97.900	7.926	0.100
98.000	-0.409	0.100
98.100	1.602	0.100
98.200	-11.503	0.100
98.300	-9.451	0.100
98.400	-3.299	0.100
98.500	-13.464	0.100
98.600	-8.800	0.100
98.700	8.967	0.100
98.800	-0.438	0.100
98.900	-6.947	0.100
99.000	-9.907	0.100
99.100	-25.963	0.100
99.200	0.036	0.100
99.300	5.213	0.100
99.400	-6.545	0.100
99.500	-7.222	0.100
99.600	-16.419	0.100
99.700	-14.818	0.100
99.800	1.891	0.100
99.900	-3.347	0.100
100.000	-7.332	0.100
100.100	2.377	0.100
100.200	-11.102	0.100
100.300	-19.335	0.100
100.400	8.133	0.100
100.500	-12.311	0.100
100.600	-9.733	0.100
100.700	-14.077	0.100
100.800	-7.395	0.100
100.900	-5.312	0.100
101.000	-13.201	0.100
101.100	8.817	0.100
101.200	-2.603	0.100
101.300	-4.134	0.100
101.400	-0.657	0.101
101.500	3.692	0.100
101.600	1.130	0.100
101.700	-14.455	0.100
101.800	-9.150	0.100
101.900	-11.690	0.100
102.000	-5.496	0.100
102.100	-3.876	0.100
102.200	-13.724	0.100
102.300	-10.460	0.100
102.400	-16.832	0.100
102.500	1.523	0.100
102.600	-11.772	0.100
102.700	-19.663	0.100
102.800	-2.893	0.100
102.900	-22.352	0.100
103.000	-6.633	0.100
103.100	-2.329	0.100
103.200	-8.775	0.100
103.300	-15.144	0.100
103.400	-6.075	0.100
103.500	-6.637	0.100
103.600	-14.235	0.101
103.700	-14.478	0.100
103.800	-2.729	0.100
103.900	-12.697	0.100
104.000	-1.989	0.100
104.100	-12.969	0.100
104.200	-18.296	0.100
104.300	-16.648	0.100
104.400	-19.910	0.100
104.500	-9.549	0.100
104.600	-3.348	0.100
104.700	-16.157	0.100
104.800	-3.786	0.100
104.900	-5.712	0.100
105.000	0.410	0.100
105.100	6.447	0.101
105.200	-21.847	0.100
105.300	-16.445	0.100
105.400	-3.550	0.100
105.500	-4.153	0.100
105.600	-20.927	0.100
105.700	-7.248	0.100
105.800	-18.245	0.100
105.900	-8.169	0.100
106.000	-13.659	0.100
106.100	-6.406	0.100
106.200	-9.157	0.100
106.300	-3.420	0.100
106.400	-0.544	0.100
106.500	-8.908	0.100
106.600	-23.282	0.100
106.700	-9.475	0.100
106.800	0.219	0.100
106.900	-6.328	0.100
107.000	-20.890	0.100
107.100	-1.057	0.100
107.200	-12.443	0.100
107.300	-8.618	0.100
107.400	-23.543	0.100
107.500	-13.318	0.100
107.600	-18.645	0.100
107.700	-5.449	0.100
107.800	-5.683	0.100
107.900	-1.468	0.100
108.000	-4.056	0.100
108.100	-26.151	0.100
108.200	-3.548	0.100
108.300	-11.470	0.100
108.400	-21.296	0.100
108.500	-7.727	0.100
108.600	-23.713	0.100
108.700	-21.062	0.100
108.800	-7.757	0.100
108.900	-14.937	0.100
109.000	-4.640	0.100
109.100	-14.060	0.100
109.200	-10.835	0.100
109.300	-12.342	0.100
109.400	-18.223	0.100
109.500	-21.525	0.100
109.600	-12.802	0.100
109.700	-7.638	0.100
109.800	-5.881	0.100
109.900	-10.909	0.100
110.000	-7.604	0.100
110.100	-12.130	0.100
110.200	-7.984	0.100
110.300	-22.515	0.100
110.400	-12.439	0.100
110.500	-19.210	0.100
110.600	-1.031	0.100
110.700	-19.048	0.100
110.800	-4.213	0.100
110.900	-11.587	0.100
111.000	-23.195	0.100
111.100	-14.687	0.100
111.200	-3.432	0.100
111.300	6.732	0.100
111.400	-30.941	0.100
111.500	-16.701	0.101
111.600	-13.184	0.100
111.700	-4.418	0.100
111.800	-8.013	0.100
111.900	-2.672	0.100
112.000	-5.039	0.100
112.100	-14.556	0.100
112.200	-21.837	0.100
112.300	-13.802	0.100
112.400	-6.770	0.100
112.500	-19.288	0.100
112.600	2.670	0.100
112.700	-15.031	0.100
112.800	-8.830	0.100
112.900	-7.900	0.100
113.000	-3.553	0.100
113.100	-11.631	0.100
113.200	-18.536	0.100
113.300	-5.663	0.100
113.400	-18.588	0.100
113.500	-10.798	0.100
113.600	-16.927	0.101
113.700	-17.889	0.100
113.800	-13.207	0.100
113.900	-5.664	0.100
114.000	-21.599	0.100
114.100	-8.520	0.100
114.200	-18.631	0.100
114.300	-11.977	0.100
114.400	-7.614	0.100
114.500	-23.402	0.100
114.600	-8.484	0.100
114.700	-12.297	0.100
114.800	-9.348	0.100
114.900	-11.477	0.100
115.000	-25.000	0.100
115.100	-18.824	0.100
115.200	-15.388	0.100
115.300	-5.784	0.100
115.400	0.145	0.100
115.500	-20.833	0.100
115.600	2.153	0.100
115.700	-4.385	0.100
115.800	-14.745	0.100
115.900	-18.501	0.100
116.000	-9.004	0.100
116.100	-15.916	0.100
116.200	-2.045	0.100
116.300	-13.971	0.100
116.400	-22.413	0.100
116.500	-15.489	0.100
116.600	-6.279	0.100
116.700	-20.146	0.100
116.800	-16.942	0.100
116.900	-4.649	0.100
117.000	6.398	0.100
117.100	-10.776	0.100
117.200	-21.346	0.100
117.300	-15.295	0.100
117.400	-13.439	0.100
117.500	-10.378	0.100
117.600	-12.517	0.100
117.700	-21.352	0.100
117.800	3.897	0.100
117.900	-20.026	0.100
118.000	-7.263	0.100
118.100	-5.892	0.100
118.200	-14.587	0.100
118.300	-16.942	0.100
118.400	-13.623	0.100
118.500	-21.971	0.100
118.600	1.638	0.100
118.700	-19.387	0.100
118.800	-17.293	0.100
118.900	-22.988	0.100
119.000	-3.956	0.100
119.100	-13.818	0.100
119.200	-6.318	0.100
119.300	-25.141	0.100
119.400	-11.083	0.100
119.500	-17.651	0.100
119.600	-3.665	0.100
119.700	-29.863	0.100
119.800	-0.682	0.100
119.900	-9.778	0.100
120.000	-21.150	0.100
120.100	-13.356	0.100
120.200	-15.457	0.100
120.300	-13.094	0.100
120.400	-15.995	0.100
120.500	-6.666	0.100
120.600	-18.082	0.100
120.700	-12.112	0.100
120.800	-10.740	0.100
120.900	-16.597	0.100
121.000	-8.689	0.101
121.100	-22.803	0.100
121.200	-11.315	0.100
121.300	-1.868	0.100
121.400	-2.495	0.100
121.500	-6.758	0.100
121.600	-13.436	0.100
121.700	-18.356	0.100
121.800	-12.684	0.100
121.900	-12.173	0.100
122.000	-20.108	0.100
122.100	-13.962	0.100
122.200	-8.248	0.100
122.300	-8.964	0.100
122.400	-14.588	0.100
122.500	-3.286	0.100
122.600	-15.075	0.100
122.700	-16.476	0.100
122.800	-19.090	0.100
122.900	-18.349	0.100
123.000	-8.167	0.100
123.100	-9.304	0.100
123.200	-12.295	0.100
123.300	-17.243	0.100
123.400	-23.668	0.100
123.500	-0.113	0.100
123.600	-1.254	0.100
123.700	-2.672	0.100
123.800	-14.316	0.100
123.900	-12.266	0.100
124.000	-11.982	0.100
124.100	-10.521	0.100
124.200	-2.982	0.100
124.300	-19.893	0.100
124.400	-8.612	0.100
124.500	-16.858	0.100
124.600	-11.753	0.100
124.700	-15.654	0.100
124.800	-6.082	0.100
124.900	-2.558	0.100
125.000	-21.211	0.100
125.100	-3.713	0.100
125.200	-20.022	0.100
125.300	-23.653	0.100
125.400	-13.675	0.100
125.500	-18.803	0.100
125.600	-7.804	0.100
125.700	-13.757	0.100
125.800	-2.907	0.100
125.900	-29.743	0.100
126.000	-17.147	0.100
126.100	-15.526	0.100
126.200	-21.101	0.100
126.300	-13.946	0.100
126.400	-12.883	0.100
126.500	-14.061	0.100
126.600	-5.328	0.100
126.700	-24.599	0.100
126.800	-1.150	0.100
126.900	-6.777	0.100
127.000	-23.249	0.100
127.100	-12.525	0.100
127.200	-3.683	0.100
127.300	-11.710	0.100
127.400	-10.155	0.100
127.500	-14.211	0.100
127.600	-17.517	0.100
127.700	-17.216	0.100
127.800	-15.479	0.100
127.900	0.124	0.100
128.000	-4.174	0.100
128.100	-17.080	0.100
128.200	-7.577	0.100
128.300	-11.731	0.100
128.400	-15.315	0.100
128.500	-21.054	0.100
128.600	2.146	0.100
128.700	-10.080	0.100
128.800	-15.137	0.100
128.900	-7.038	0.100
129.000	0.332	0.100
129.100	-32.221	0.100
129.200	-5.180	0.100
129.300	-14.101	0.100
129.400	-4.519	0.100
129.500	-12.086	0.100
129.600	-22.877	0.100
129.700	-14.209	0.100
129.800	-16.507	0.100
129.900	-8.723	0.100
130.000	-7.804	0.100
130.100	-18.080	0.100
130.200	-9.419	0.100
130.300	-9.736	0.100
130.400	-18.724	0.100
130.500	-22.325	0.100
130.600	-4.640	0.100
130.700	-6.698	0.100
130.800	-13.135	0.100
130.900	-20.372	0.100
131.000	-1.515	0.100
131.100	3.445	0.101
131.200	-24.651	0.100
131.300	-13.103	0.100
131.400	-21.710	0.100
131.500	-22.697	0.100
131.600	-3.126	0.100
131.700	-16.818	0.100
131.800	-8.146	0.100
131.900	3.728	0.100
132.000	-9.980	0.100
132.100	-8.545	0.100
132.200	-6.999	0.100
132.300	-15.605	0.100
132.400	-9.752	0.101
132.500	-17.901	0.100
132.600	-4.004	0.100
132.700	-16.646	0.100
132.800	-17.156	0.100
132.900	-21.531	0.100
133.000	-0.551	0.100
133.100	-21.536	0.100
133.200	-8.785	0.100
133.300	0.866	0.100
133.400	-22.243	0.100
133.500	-14.028	0.101
133.600	-0.034	0.100
133.700	-16.064	0.100
133.800	-14.492	0.100
133.900	-12.291	0.100
134.000	-15.138	0.100
134.100	-3.356	0.100
134.200	-0.589	0.100
134.300	-20.231	0.100
134.400	-16.944	0.100
134.500	-25.963	0.100
134.600	-6.604	0.101
134.700	-7.516	0.100
134.800	-7.107	0.100
134.900	-1.511	0.101
135.000	-13.689	0.101
135.100	-8.750	0.100
135.200	-20.333	0.100
135.300	-12.082	0.100
135.400	-9.584	0.100
135.500	-8.791	0.100
135.600	-19.010	0.100
135.700	-13.062	0.100
135.800	-10.854	0.100
135.900	-14.884	0.100
136.000	-11.853	0.100
136.100	0.426	0.100
136.200	-9.370	0.100
136.300	-5.791	0.100
136.400	-24.273	0.100
136.500	-15.027	0.100
136.600	-19.041	0.100
136.700	-8.559	0.100
136.800	-17.471	0.100
136.900	-3.475	0.100
137.000	10.149	0.100
137.100	-20.874	0.100
137.200	-22.659	0.100
137.300	-15.935	0.100
137.400	-14.491	0.100
137.500	-9.281	0.100
137.600	-7.086	0.100
137.700	-14.350	0.100
137.800	-2.209	0.101
137.900	-6.454	0.100
138.000	-15.587	0.100
138.100	-13.305	0.100
138.200	-12.563	0.100
138.300	-8.169	0.100
138.400	-10.938	0.100
138.500	-13.828	0.101
138.600	-10.873	0.100
138.700	-15.841	0.100
138.800	-20.557	0.100
138.900	-7.344	0.100
139.000	-12.190	0.100
139.100	-0.983	0.100
139.200	-13.243	0.100
139.300	-4.652	0.100
139.400	-17.084	0.100
139.500	-13.626	0.100
139.600	-0.888	0.100
139.700	-17.458	0.100
139.800	-14.905	0.100
139.900	-7.686	0.100
140.000	-21.397	0.100
140.100	-17.408	0.100
140.200	-8.416	0.100
140.300	-12.307	0.100
140.400	-8.800	0.100
140.500	-7.683	0.100
140.600	-30.962	0.100
140.700	3.756	0.100
140.800	-1.705	0.100
140.900	-14.449	0.100
141.000	-7.794	0.100
141.100	-11.813	0.100
141.200	-15.250	0.100
141.300	-8.325	0.100
141.400	-3.527	0.100
141.500	-27.003	0.100
141.600	-13.581	0.100
141.700	-1.417	0.100
141.800	-11.525	0.100
141.900	-18.393	0.100
142.000	-15.253	0.100
142.100	-9.335	0.100
142.200	-10.141	0.100
142.300	0.227	0.100
142.400	-15.562	0.100
142.500	-17.339	0.100
142.600	-17.831	0.100
142.700	-20.458	0.100
142.800	-11.743	0.100
142.900	-15.248	0.100
143.000	-8.122	0.101
143.100	-8.309	0.100
143.200	-5.844	0.100
143.300	-13.799	0.100
143.400	-3.797	0.100
143.500	-27.965	0.100
143.600	-12.419	0.101
143.700	-10.081	0.101
143.800	-10.480	0.100
143.900	-7.166	0.100
144.000	-12.895	0.101
144.100	-4.900	0.100
144.200	-18.968	0.100
144.300	-22.117	0.100
144.400	-17.040	0.100
144.500	-8.524	0.100
144.600	-9.970	0.100
144.700	-13.540	0.100
144.800	-15.041	0.100
144.900	-15.888	0.101
145.000	-6.696	0.100
145.100	-26.109	0.101
145.200	-10.078	0.100
145.300	-18.268	0.100
145.400	-6.320	0.100
145.500	-8.603	0.100
145.600	-13.295	0.101
145.700	-7.574	0.101
145.800	-17.340	0.100
145.900	-11.455	0.100
146.000	-6.342	0.100
146.100	-2.831	0.100
146.200	-6.288	0.100
146.300	-17.385	0.100
146.400	-11.151	0.100
146.500	-8.841	0.100
146.600	-5.429	0.101
146.700	-23.611	0.100
146.800	-15.610	0.100
146.900	-15.025	0.101
147.000	-6.769	0.100
147.100	-20.649	0.101
147.200	3.831	0.100
147.300	-11.490	0.100
147.400	-13.272	0.101
147.500	-12.194	0.100
147.600	-1.500	0.100
147.700	-7.432	0.100
147.800	-11.235	0.100
147.900	-14.833	0.100
148.000	-0.898	0.101
148.100	-3.788	0.100
148.200	-28.167	0.101
148.300	-17.458	0.100
148.400	-16.578	0.101
148.500	-9.878	0.101
148.600	-5.598	0.100
148.700	1.283	0.101
148.800	-5.064	0.100
148.900	-12.231	0.100
149.000	-27.350	0.100
149.100	-8.630	0.100
149.200	-14.362	0.100
149.300	-10.660	0.100
149.400	-8.733	0.100
149.500	-8.717	0.100
149.600	3.658	0.101
149.700	-4.796	0.100
149.800	-7.206	0.100
149.900	-8.070	0.101
150.000	-1.003	0.100
150.100	-1.284	0.100
150.200	-25.943	0.100
150.300	-10.774	0.100
150.400	-12.236	0.100
150.500	1.508	0.100
150.600	-9.203	0.100
150.700	-11.649	0.100
150.800	-20.514	0.100
150.900	-23.985	0.100
151.000	-29.211	0.100
151.100	-17.906	0.100
151.200	-1.931	0.100
151.300	-7.465	0.100
151.400	-13.123	0.100
151.500	-8.619	0.100
151.600	-6.647	0.100
151.700	-13.477	0.100
151.800	-11.544	0.100
151.900	-7.083	0.100
152.000	-7.597	0.100
152.100	-6.440	0.101
152.200	-6.715	0.100
152.300	-18.308	0.100
152.400	-14.063	0.100
152.500	-4.891	0.100
152.600	-14.488	0.100
152.700	-24.469	0.100
152.800	3.476	0.100
152.900	-10.358	0.100
153.000	-20.635	0.100
153.100	-4.801	0.100
153.200	-12.159	0.100
153.300	-11.729	0.101
153.400	-10.965	0.100
153.500	-9.058	0.100
153.600	-10.115	0.100
153.700	-7.288	0.100
153.800	-12.818	0.100
153.900	-7.346	0.101
154.000	-15.580	0.100
154.100	-21.511	0.100
154.200	-10.668	0.101
154.300	0.878	0.100
154.400	-10.794	0.100
154.500	-16.602	0.100
154.600	-13.021	0.100
154.700	-12.883	0.100
154.800	-16.734	0.100
154.900	-3.807	0.100
155.000	-12.099	0.100
155.100	-16.559	0.100
155.200	-0.524	0.101
155.300	-1.088	0.100
155.400	-16.308	0.100
155.500	-13.121	0.100
155.600	-11.738	0.100
155.700	-20.089	0.100
155.800	-2.018	0.100
155.900	-12.513	0.100
156.000	14.556	0.100
156.100	-18.080	0.100
156.200	-17.276	0.100
156.300	-7.045	0.100
156.400	2.795	0.100
156.500	2.766	0.100
156.600	-12.178	0.100
156.700	-15.775	0.100
156.800	-5.493	0.100
156.900	-6.493	0.100
157.000	-28.426	0.100
157.100	-11.634	0.100
157.200	0.226	0.100
157.300	0.724	0.100
157.400	0.529	0.100
157.500	-14.151	0.100
157.600	-0.086	0.100
157.700	-11.464	0.100
157.800	-11.102	0.100
157.900	-10.903	0.100
158.000	-0.205	0.100
158.100	-31.317	0.100
158.200	-10.611	0.100
158.300	-6.845	0.100
158.400	-4.956	0.100
158.500	-11.087	0.100
158.600	4.377	0.101
158.700	-11.766	0.100
158.800	-2.407	0.100
158.900	-6.379	0.100
159.000	-2.045	0.100
159.100	-12.723	0.100
159.200	-11.638	0.100
159.300	-14.378	0.100
159.400	-10.213	0.100
159.500	-0.778	0.100
159.600	2.338	0.100
159.700	-10.930	0.100
159.800	-9.929	0.100
159.900	-8.893	0.100
160.000	-21.544	0.100
160.100	-9.388	0.100
160.200	0.108	0.100
160.300	6.188	0.100
160.400	-20.554	0.100
160.500	-7.065	0.100
160.600	-11.559	0.100
160.700	-12.652	0.100
160.800	-20.440	0.100
160.900	4.567	0.100
161.000	-4.802	0.100
161.100	3.688	0.100
161.200	-29.109	0.100
161.300	-12.631	0.100
161.400	-14.058	0.100
161.500	-17.405	0.100
161.600	-1.786	0.100
161.700	-5.473	0.100
161.800	-11.547	0.100
161.900	-7.125	0.100
162.000	-1.705	0.100
162.100	-0.945	0.100
162.200	-10.095	0.100
162.300	-4.105	0.100
162.400	-7.825	0.100
162.500	-28.841	0.100
162.600	-10.810	0.100
162.700	-5.314	0.100
162.800	-23.301	0.100
162.900	-15.403	0.100
163.000	-19.633	0.100
163.100	-11.191	0.100
163.200	-11.226	0.100
163.300	-11.645	0.100
163.400	-8.424	0.100
163.500	-9.323	0.100
163.600	-14.927	0.100
163.700	-8.776	0.100
163.800	-7.323	0.100
163.900	-10.479	0.100
164.000	-17.962	0.100
164.100	3.052	0.100
164.200	-20.247	0.100
164.300	-1.921	0.101
164.400	-8.540	0.100
164.500	-19.399	0.100
164.600	-3.880	0.100
164.700	-11.920	0.100
164.800	-4.046	0.100
164.900	-14.630	0.100
165.000	-23.155	0.100
165.100	1.325	0.100
165.200	-7.744	0.100
165.300	-12.444	0.100
165.400	-10.072	0.100
165.500	-13.331	0.100
165.600	-14.751	0.100
165.700	-11.410	0.100
165.800	-3.518	0.100
165.900	1.247	0.100
166.000	-19.358	0.100
166.100	-26.720	0.100
166.200	-8.007	0.100
166.300	-13.479	0.100
166.400	-12.303	0.100
166.500	-15.540	0.100
166.600	5.493	0.101
166.700	-13.721	0.100
166.800	-5.726	0.100
166.900	-1.764	0.100
167.000	-16.134	0.100
167.100	-21.143	0.100
167.200	-2.294	0.100
167.300	-4.339	0.100
167.400	-11.436	0.100
167.500	-17.817	0.100
167.600	-6.135	0.100
167.700	-17.640	0.100
167.800	-5.920	0.100
167.900	-4.053	0.100
168.000	-4.910	0.100
168.100	-10.585	0.100
168.200	-9.640	0.101
168.300	-19.042	0.100
168.400	-14.031	0.101
168.500	1.651	0.101
168.600	-4.176	0.100
168.700	-3.507	0.100
168.800	-1.318	0.100
168.900	-18.277	0.100
169.000	-13.501	0.100
169.100	-13.370	0.101
169.200	-8.891	0.101
169.300	-16.019	0.101
169.400	-6.710	0.101
169.500	-4.652	0.101
169.600	-11.431	0.101
169.700	-9.401	0.100
169.800	-13.278	0.101
169.900	-7.679	0.100
170.000	-9.995	0.101
170.100	-3.994	0.100
170.200	-4.966	0.101
170.300	-13.946	0.101
170.400	-18.076	0.100
170.500	-16.332	0.100
170.600	-5.169	0.100
170.700	0.195	0.101
170.800	-12.866	0.101
170.900	-12.866	0.100
171.000	-5.815	0.101
171.100	-16.586	0.101
171.200	-2.296	0.101
171.300	-11.787	0.101
171.400	-13.602	0.100
171.500	-10.721	0.100
171.600	-4.039	0.100
171.700	-12.750	0.100
171.800	-2.924	0.100
171.900	-13.017	0.100
172.000	-8.226	0.100
172.100	-14.532	0.100
172.200	-3.354	0.100
172.300	-9.296	0.100
172.400	-16.560	0.100
172.500	-10.562	0.100
172.600	-19.988	0.100
172.700	-3.470	0.100
172.800	-11.364	0.100
172.900	1.685	0.100
173.000	-16.081	0.100
173.100	-7.491	0.100
173.200	-20.063	0.101
173.300	-9.492	0.100
173.400	-9.467	0.100
173.500	-12.217	0.101
173.600	-14.840	0.100
173.700	9.281	0.101
173.800	-21.802	0.101
173.900	-6.840	0.100
174.000	-13.155	0.100
174.100	-24.217	0.100
174.200	-5.263	0.100
174.300	-7.196	0.100
174.400	-4.914	0.101
174.500	-17.952	0.100
174.600	7.605	0.100
174.700	-18.406	0.101
174.800	-12.334	0.100
174.900	-11.507	0.100
175.000	-12.224	0.100
175.100	-9.503	0.100
175.200	-9.762	0.101
175.300	-11.269	0.100
175.400	-14.622	0.100
175.500	-0.634	0.100
175.600	-3.917	0.101
175.700	-7.045	0.101
175.800	-2.839	0.100
175.900	-0.010	0.100
176.000	-1.433	0.100
176.100	-11.779	0.100
176.200	-4.917	0.100
176.300	-2.601	0.101
176.400	-13.876	0.100
176.500	3.384	0.100
176.600	-14.400	0.101
176.700	-1.655	0.101
176.800	-23.186	0.100
176.900	-4.335	0.100
177.000	-4.163	0.101
177.100	-3.719	0.100
177.200	-9.537	0.101
177.300	-6.057	0.101
177.400	-20.812	0.100
177.500	-2.200	0.100
177.600	-20.025	0.100
177.700	-9.375	0.100
177.800	-8.125	0.100
177.900	0.682	0.101
178.000	-4.634	0.101
178.100	-9.599	0.100
178.200	-17.233	0.100
178.300	3.092	0.100
178.400	-2.674	0.100
178.500	-16.913	0.100
178.600	-35.608	0.100
178.700	-11.235	0.100
178.800	-12.911	0.100
178.900	-5.387	0.100
179.000	-9.916	0.100
179.100	-14.048	0.100
179.200	-13.024	0.100
179.300	-5.274	0.100
179.400	-7.578	0.100
179.500	-15.681	0.100
179.600	-5.153	0.100
179.700	-14.027	0.100
179.800	-15.355	0.100
179.900	-3.856	0.100
180.000	-11.572	0.100
180.100	-9.235	0.100
180.200	-16.491	0.100
180.300	8.103	0.100
180.400	-0.817	0.100
180.500	-16.929	0.100
180.600	-3.963	0.100
180.700	2.412	0.100
180.800	-7.519	0.100
180.900	2.862	0.100
181.000	-2.473	0.100
181.100	1.342	0.100
181.200	-3.864	0.100
181.300	0.399	0.100
181.400	-0.798	0.100
181.500	8.694	0.100
181.600	4.743	0.100
181.700	4.647	0.101
181.800	7.130	0.101
181.900	16.351	0.100
182.000	3.368	0.100
182.100	-1.027	0.100
182.200	10.616	0.101
182.300	0.946	0.100
182.400	10.292	0.100
182.500	1.996	0.100
182.600	7.091	0.101
182.700	0.976	0.100
182.800	-1.012	0.100
182.900	9.758	0.100
183.000	12.927	0.100
183.100	-0.326	0.100
183.200	10.606	0.101
183.300	9.327	0.100
183.400	-7.189	0.100
183.500	-9.925	0.100
183.600	4.231	0.100
183.700	2.270	0.100
183.800	18.147	0.101
183.900	7.052	0.100
184.000	-11.764	0.100
184.100	9.190	0.100
184.200	5.605	0.100
184.300	4.916	0.100
184.400	0.977	0.100
184.500	8.194	0.100
184.600	10.046	0.100
184.700	9.697	0.100
184.800	18.739	0.100
184.900	6.249	0.100
185.000	-5.205	0.100
185.100	8.707	0.100
185.200	5.984	0.100
185.300	5.253	0.100
185.400	18.643	0.100
185.500	7.209	0.100
185.600	13.709	0.100
185.700	6.365	0.101
185.800	4.548	0.100
185.900	0.067	0.100
186.000	19.447	0.100
186.100	9.851	0.100
186.200	2.677	0.100
186.300	2.013	0.100
186.400	12.629	0.100
186.500	5.949	0.100
186.600	5.112	0.100
186.700	24.626	0.100
186.800	10.508	0.100
186.900	6.784	0.100
187.000	1.523	0.100
187.100	13.416	0.100
187.200	16.443	0.100
187.300	12.806	0.100
187.400	3.792	0.100
187.500	-5.121	0.100
187.600	11.450	0.100
187.700	5.285	0.100
187.800	6.811	0.100
187.900	3.702	0.100
188.000	9.741	0.100
188.100	13.247	0.100
188.200	12.836	0.100
188.300	4.990	0.100
188.400	4.284	0.101
188.500	3.111	0.100
188.600	4.539	0.100
188.700	18.206	0.100
188.800	-9.946	0.100
188.900	18.199	0.100
189.000	23.653	0.100
189.100	25.258	0.100
189.200	8.265	0.100
189.300	15.136	0.100
189.400	0.892	0.100
189.500	6.375	0.100
189.600	8.864	0.100
189.700	2.332	0.100
189.800	9.804	0.100
189.900	12.348	0.100
190.000	1.101	0.100
190.100	15.207	0.100
190.200	15.329	0.101
190.300	11.276	0.100
190.400	3.041	0.100
190.500	-0.465	0.100
190.600	17.897	0.100
190.700	10.555	0.100
190.800	4.042	0.100
190.900	20.433	0.100
191.000	12.465	0.101
191.100	11.870	0.100
191.200	0.948	0.100
191.300	6.145	0.100
191.400	13.024	0.100
191.500	3.723	0.100
191.600	6.409	0.100
191.700	12.192	0.100
191.800	6.643	0.100
191.900	14.810	0.100
192.000	19.533	0.100
192.100	-5.760	0.101
192.200	9.039	0.100
192.300	17.894	0.100
192.400	6.706	0.100
192.500	11.907	0.100
192.600	21.465	0.100
192.700	21.853	0.100
192.800	7.385	0.101
192.900	3.751	0.100
193.000	19.041	0.100
193.100	13.421	0.100
193.200	9.295	0.100
193.300	14.367	0.100
193.400	6.793	0.101
193.500	16.424	0.100
193.600	2.676	0.100
193.700	9.609	0.100
193.800	25.884	0.100
193.900	10.278	0.100
194.000	6.356	0.101
194.100	18.087	0.101
194.200	15.810	0.100
194.300	-2.120	0.100
194.400	26.525	0.100
194.500	7.815	0.100
194.600	23.325	0.100
194.700	5.588	0.101
194.800	7.426	0.100
194.900	15.812	0.101
195.000	14.556	0.100
195.100	3.358	0.100
195.200	20.218	0.100
195.300	19.716	0.100
195.400	9.469	0.101
195.500	11.450	0.101
195.600	14.003	0.101
195.700	35.563	0.100
195.800	10.992	0.100
195.900	25.854	0.100
196.000	12.277	0.100
196.100	8.580	0.100
196.200	20.041	0.101
196.300	15.781	0.100
196.400	7.678	0.101
196.500	23.533	0.100
196.600	12.684	0.100
196.700	13.361	0.100
196.800	2.244	0.100
196.900	20.385	0.100
197.000	15.637	0.100
197.100	10.624	0.100
197.200	19.917	0.100
197.300	4.401	0.100
197.400	18.049	0.100
197.500	15.751	0.100
197.600	-2.019	0.100
197.700	20.144	0.100
197.800	15.608	0.100
197.900	16.756	0.100
198.000	18.607	0.101
198.100	1.026	0.100
198.200	30.508	0.100
198.300	15.995	0.100
198.400	23.526	0.100
198.500	19.769	0.100
198.600	3.985	0.100
198.700	35.958	0.100
198.800	2.319	0.100
198.900	9.273	0.100
199.000	21.682	0.100
199.100	26.123	0.100
199.200	18.380	0.101
199.300	11.379	0.100
199.400	21.582	0.100
199.500	27.567	0.100
199.600	6.082	0.100
199.700	4.297	0.100
199.800	22.571	0.100
199.900	17.718	0.100
200.000	15.314	0.100
200.100	27.336	0.100
200.200	6.071	0.100
200.300	8.050	0.100
200.400	16.488	0.100
200.500	18.420	0.100
200.600	11.631	0.100
200.700	15.723	0.100
200.800	20.949	0.100
200.900	5.751	0.101
201.000	18.561	0.100
201.100	18.253	0.100
201.200	16.973	0.100
201.300	23.980	0.100
201.400	10.285	0.100
201.500	31.353	0.100
201.600	9.146	0.100
201.700	3.775	0.100
201.800	29.043	0.100
201.900	18.954	0.100
202.000	15.702	0.100
202.100	14.915	0.100
202.200	10.092	0.100
202.300	11.431	0.100
202.400	24.741	0.100
202.500	9.702	0.100
202.600	22.915	0.100
202.700	22.272	0.100
202.800	18.905	0.100
202.900	31.349	0.100
203.000	10.764	0.100
203.100	4.307	0.100
203.200	29.247	0.100
203.300	21.823	0.101
203.400	20.458	0.100
203.500	18.810	0.100
203.600	11.910	0.100
203.700	22.316	0.100
203.800	22.810	0.100
203.900	16.443	0.100
204.000	17.723	0.100
204.100	23.540	0.100
204.200	21.584	0.100
204.300	12.059	0.100
204.400	25.997	0.100
204.500	24.171	0.100
204.600	32.634	0.100
204.700	17.633	0.101
204.800	20.416	0.100
204.900	25.020	0.100
205.000	15.287	0.101
205.100	23.001	0.100
205.200	15.584	0.100
205.300	6.940	0.100
205.400	24.038	0.100
205.500	15.695	0.100
205.600	28.604	0.100
205.700	24.702	0.100
205.800	16.951	0.100
205.900	18.575	0.100
206.000	23.415	0.100
206.100	30.520	0.100
206.200	25.691	0.100
206.300	30.032	0.100
206.400	14.853	0.100
206.500	26.019	0.100
206.600	21.163	0.100
206.700	16.093	0.100
206.800	16.149	0.100
206.900	14.027	0.100
207.000	30.913	0.100
207.100	20.304	0.100
207.200	18.463	0.100
207.300	17.702	0.101
207.400	29.638	0.100
207.500	23.152	0.100
207.600	23.356	0.100
207.700	24.060	0.100
207.800	10.802	0.101
207.900	19.687	0.100
208.000	18.943	0.100
208.100	11.864	0.100
208.200	23.161	0.100
208.300	16.607	0.100
208.400	15.302	0.100
208.500	22.750	0.100
208.600	29.486	0.100
208.700	26.736	0.100
208.800	15.492	0.100
208.900	13.423	0.100
209.000	33.586	0.101
209.100	25.494	0.101
209.200	34.419	0.100
209.300	25.786	0.101
209.400	30.533	0.101
209.500	32.320	0.101
209.600	14.072	0.101
209.700	19.535	0.101
209.800	22.035	0.101
209.900	20.952	0.100
210.000	29.853	0.101
210.100	25.871	0.100
210.200	32.409	0.100
210.300	34.086	0.100
210.400	18.669	0.100
210.500	15.624	0.101
210.600	29.348	0.100
210.700	38.921	0.100
210.800	26.670	0.100
210.900	40.792	0.100
211.000	12.493	0.100
211.100	26.845	0.100
211.200	24.595	0.101
211.300	11.977	0.100
211.400	22.142	0.101
211.500	28.579	0.100
211.600	16.404	0.100
211.700	21.381	0.101
211.800	11.875	0.101
211.900	27.436	0.100
212.000	17.818	0.100
212.100	17.011	0.100
212.200	25.751	0.100
212.300	29.109	0.101
212.400	20.895	0.100
212.500	1.706	0.100
212.600	34.481	0.100
212.700	11.635	0.100
212.800	9.687	0.100
212.900	40.501	0.100
213.000	22.854	0.100
213.100	16.598	0.100
213.200	17.123	0.100
213.300	37.896	0.100
213.400	23.181	0.100
213.500	14.320	0.100
213.600	23.603	0.100
213.700	40.748	0.100
213.800	28.917	0.100
213.900	18.468	0.100
214.000	25.207	0.100
214.100	30.339	0.100
214.200	19.601	0.101
214.300	25.310	0.100
214.400	35.161	0.100
214.500	24.581	0.100
214.600	28.810	0.100
214.700	26.437	0.100
214.800	22.822	0.100
214.900	14.523	0.100
215.000	29.453	0.100
215.100	30.411	0.100
215.200	12.506	0.100
215.300	29.614	0.100
215.400	6.708	0.100
215.500	34.093	0.100
215.600	16.919	0.100
215.700	25.899	0.101
215.800	24.673	0.100
215.900	22.160	0.101
216.000	34.483	0.100
216.100	35.503	0.100
216.200	24.812	0.100
216.300	21.063	0.101
216.400	25.064	0.100
216.500	31.808	0.100
216.600	30.096	0.100
216.700	13.086	0.100
216.800	32.536	0.100
216.900	31.566	0.100
217.000	38.017	0.101
217.100	29.585	0.100
217.200	28.129	0.100
217.300	21.433	0.101
217.400	15.302	0.100
217.500	32.975	0.100
217.600	20.795	0.100
217.700	23.629	0.100
217.800	13.131	0.101
217.900	21.620	0.100
218.000	12.259	0.100
218.100	14.444	0.100
218.200	15.840	0.100
218.300	36.228	0.100
218.400	30.729	0.101
218.500	34.092	0.100
218.600	11.407	0.100
218.700	21.000	0.100
218.800	30.205	0.100
218.900	21.531	0.100
219.000	29.547	0.100
219.100	17.635	0.100
219.200	17.946	0.100
219.300	33.603	0.100
219.400	15.855	0.100
219.500	34.892	0.100
219.600	21.001	0.100
219.700	32.226	0.100
219.800	20.723	0.100
219.900	33.969	0.100
220.000	9.275	0.100
220.100	4.836	0.100
220.200	32.807	0.100
220.300	14.977	0.100
220.400	39.141	0.100
220.500	22.537	0.100
220.600	22.465	0.100
220.700	26.002	0.100
220.800	11.233	0.100
220.900	24.822	0.100
221.000	36.798	0.100
221.100	12.844	0.100
221.200	21.972	0.100
221.300	21.033	0.100
221.400	32.842	0.100
221.500	22.139	0.100
221.600	20.933	0.100
221.700	25.196	0.100
221.800	22.048	0.101
221.900	29.695	0.100
222.000	12.859	0.100
222.100	26.832	0.100
222.200	10.998	0.100
222.300	11.775	0.100
222.400	41.434	0.100
222.500	30.260	0.100
222.600	30.804	0.101
222.700	32.058	0.100
222.800	36.130	0.100
222.900	18.907	0.101
223.000	23.132	0.100
223.100	24.846	0.100
223.200	35.392	0.100
223.300	23.161	0.100
223.400	29.125	0.100
223.500	15.529	0.101
223.600	26.359	0.101
223.700	28.559	0.100
223.800	24.900	0.100
223.900	16.958	0.100
224.000	30.088	0.100
224.100	19.383	0.101
224.200	16.999	0.100
224.300	19.239	0.100
224.400	31.252	0.100
224.500	30.316	0.100
224.600	21.159	0.101
224.700	25.426	0.101
224.800	24.833	0.100
224.900	49.467	0.100
225.000	33.537	0.100
225.100	18.845	0.100
225.200	28.690	0.100
225.300	35.584	0.100
225.400	20.378	0.100
225.500	20.257	0.101
225.600	34.596	0.100
225.700	29.180	0.100
225.800	11.589	0.100
225.900	14.242	0.100
226.000	25.917	0.101
226.100	31.240	0.100
226.200	16.096	0.100
226.300	34.573	0.101
226.400	6.225	0.100
226.500	27.463	0.100
226.600	21.961	0.100
226.700	34.516	0.100
226.800	32.291	0.100
226.900	34.116	0.100
227.000	13.531	0.100
227.100	40.966	0.100
227.200	20.016	0.100
227.300	22.658	0.100
227.400	26.554	0.100
227.500	23.313	0.101
227.600	29.575	0.100
227.700	34.200	0.100
227.800	44.121	0.100
227.900	23.967	0.100
228.000	31.350	0.101
228.100	25.459	0.100
228.200	20.299	0.100
228.300	25.912	0.101
228.400	19.352	0.101
228.500	37.533	0.100
228.600	15.376	0.100
228.700	25.407	0.100
228.800	27.827	0.100
228.900	30.848	0.100
229.000	13.324	0.100
229.100	33.334	0.100
229.200	22.678	0.100
229.300	41.528	0.100
229.400	19.890	0.100
229.500	27.477	0.101
229.600	21.667	0.100
229.700	29.630	0.100
229.800	27.914	0.100
229.900	22.905	0.101
230.000	29.988	0.100
230.100	30.573	0.100
230.200	27.166	0.100
230.300	13.538	0.100
230.400	31.240	0.100
230.500	34.893	0.100
230.600	34.216	0.100
230.700	19.792	0.100
230.800	32.401	0.100
230.900	31.468	0.100
231.000	24.531	0.100
231.100	29.787	0.100
231.200	26.761	0.100
231.300	13.070	0.100
231.400	12.041	0.100
231.500	40.961	0.101
231.600	17.816	0.100
231.700	42.878	0.100
231.800	30.187	0.100
231.900	33.459	0.100
232.000	31.816	0.100
232.100	24.011	0.100
232.200	34.240	0.100
232.300	25.025	0.101
232.400	24.133	0.100
232.500	23.436	0.100
232.600	37.476	0.100
232.700	28.299	0.101
232.800	14.501	0.101
232.900	26.330	0.100
233.000	39.241	0.100
233.100	12.943	0.100
233.200	24.127	0.100
233.300	31.940	0.100
233.400	25.436	0.101
233.500	27.196	0.100
233.600	38.947	0.100
233.700	26.391	0.100
233.800	19.556	0.100
233.900	25.787	0.100
234.000	34.116	0.100
234.100	26.290	0.100
234.200	21.912	0.100
234.300	32.902	0.100
234.400	27.015	0.100
234.500	28.242	0.100
234.600	37.568	0.100
234.700	32.259	0.100
234.800	26.002	0.101
234.900	29.277	0.100
235.000	30.625	0.100
235.100	24.892	0.101
235.200	21.020	0.100
235.300	27.184	0.101
235.400	42.669	0.100
235.500	19.266	0.100
235.600	32.258	0.100
235.700	21.411	0.100
235.800	35.420	0.101
235.900	31.841	0.100
236.000	22.403	0.101
236.100	11.854	0.101
236.200	28.095	0.100
236.300	25.961	0.100
236.400	22.698	0.100
236.500	17.908	0.100
236.600	24.650	0.100
236.700	40.978	0.100
236.800	28.944	0.100
236.900	26.127	0.100
237.000	29.964	0.100
237.100	29.130	0.100
237.200	28.497	0.100
237.300	22.729	0.101
237.400	21.933	0.100
237.500	16.118	0.100
237.600	27.179	0.100
237.700	31.476	0.101
237.800	36.410	0.100
237.900	20.619	0.101
238.000	36.535	0.100
238.100	33.877	0.100
238.200	14.047	0.100
238.300	8.545	0.100
238.400	7.454	0.100
238.500	25.927	0.100
238.600	28.505	0.100
238.700	34.247	0.100
238.800	31.491	0.100
238.900	27.586	0.100
239.000	30.749	0.100
239.100	24.789	0.100
239.200	42.638	0.100
239.300	31.350	0.100
239.400	30.989	0.100
239.500	32.400	0.100
239.600	25.393	0.100
239.700	23.360	0.100
239.800	21.693	0.100
239.900	29.061	0.100
240.000	21.670	0.100
240.100	23.679	0.100
240.200	18.567	0.100
240.300	34.791	0.100
240.400	23.192	0.100
240.500	24.692	0.100
240.600	30.908	0.100
240.700	27.674	0.101
240.800	19.456	0.100
240.900	28.595	0.100
241.000	27.403	0.100
241.100	9.226	0.100
241.200	19.709	0.100
241.300	18.934	0.100
241.400	21.462	0.100
241.500	7.531	0.100
241.600	5.986	0.100
241.700	12.227	0.100
241.800	12.900	0.100
241.900	1.594	0.100
242.000	6.984	0.100
242.100	5.050	0.100
242.200	4.490	0.100
242.300	-1.077	0.100
242.400	2.759	0.100
242.500	5.720	0.100
242.600	10.605	0.100
242.700	-1.864	0.100
242.800	15.141	0.100
242.900	2.172	0.100
243.000	-0.319	0.100
243.100	14.176	0.100
243.200	3.813	0.100
243.300	-4.928	0.100
243.400	1.849	0.100
243.500	4.415	0.100
243.600	9.134	0.100
243.700	21.340	0.100
243.800	-0.333	0.100
243.900	-3.320	0.100
244.000	1.395	0.100
244.100	10.708	0.100
244.200	7.690	0.100
244.300	-1.944	0.100
244.400	-12.870	0.100
244.500	-8.784	0.100
244.600	-5.049	0.100
244.700	-3.690	0.100
244.800	12.000	0.100
244.900	6.343	0.100
245.000	0.118	0.100
245.100	-0.252	0.100
245.200	-1.151	0.100
245.300	3.804	0.100
245.400	3.005	0.100
245.500	-5.800	0.100
245.600	-9.500	0.100
245.700	6.235	0.100
245.800	-8.555	0.100
245.900	1.374	0.100
246.000	-3.285	0.100
246.100	7.055	0.101
246.200	5.816	0.100
246.300	-1.691	0.100
246.400	-2.789	0.100
246.500	-3.510	0.100
246.600	-5.418	0.100
246.700	4.184	0.100
246.800	-5.347	0.100
246.900	3.400	0.100
247.000	2.647	0.100
247.100	-14.650	0.100
247.200	-3.791	0.100
247.300	-0.892	0.100
247.400	-7.104	0.100
247.500	-0.402	0.100
247.600	-14.177	0.100
247.700	3.151	0.100
247.800	-8.423	0.100
247.900	-6.701	0.100
248.000	-9.700	0.100
248.100	7.261	0.100
248.200	-13.334	0.100
248.300	-11.192	0.100
248.400	4.679	0.100
248.500	4.645	0.100
248.600	-7.283	0.100
248.700	-12.094	0.100
248.800	1.745	0.100
248.900	-6.165	0.100
249.000	7.944	0.100
249.100	-12.210	0.100
249.200	-2.800	0.100
249.300	4.037	0.100
249.400	-7.165	0.100
249.500	-10.303	0.100
249.600	4.520	0.100
249.700	1.336	0.100
249.800	-7.507	0.100
249.900	-11.945	0.100
250.000	6.704	0.100
250.100	-5.136	0.100
250.200	-5.044	0.100
250.300	-8.933	0.100
250.400	6.641	0.100
250.500	-13.123	0.100
250.600	-1.680	0.100
250.700	-18.372	0.100
250.800	-1.376	0.100
250.900	-4.812	0.100
251.000	-25.826	0.100
251.100	5.944	0.101
251.200	-9.393	0.100
251.300	-4.323	0.100
251.400	-0.868	0.100
251.500	-13.217	0.100
251.600	6.356	0.100
251.700	-9.291	0.100
251.800	5.102	0.101
251.900	0.121	0.100
252.000	-14.231	0.100
252.100	-13.459	0.100
252.200	-14.034	0.100
252.300	-7.364	0.100
252.400	-4.503	0.100
252.500	3.539	0.100
252.600	-12.597	0.100
252.700	0.356	0.100
252.800	5.177	0.100
252.900	-11.873	0.100
253.000	-3.414	0.101
253.100	-25.178	0.100
253.200	-17.393	0.100
253.300	-18.465	0.100
253.400	-21.908	0.100
253.500	-10.267	0.100
253.600	-7.594	0.100
253.700	-12.164	0.100
253.800	-13.535	0.100
253.900	-8.132	0.100
254.000	-8.703	0.100
254.100	-11.129	0.100
254.200	-24.222	0.100
254.300	-13.917	0.100
254.400	-6.036	0.100
254.500	-20.642	0.100
254.600	-11.811	0.100
254.700	-8.244	0.100
254.800	-4.272	0.100
254.900	-11.126	0.100
255.000	-4.480	0.101
255.100	-13.820	0.100
255.200	-26.231	0.100
255.300	-13.090	0.100
255.400	-6.829	0.101
255.500	-15.945	0.100
255.600	-4.602	0.101
255.700	-13.579	0.100
255.800	-12.398	0.100
255.900	-13.374	0.101
256.000	-2.035	0.100
256.100	-8.264	0.100
256.200	-15.641	0.100
256.300	-15.626	0.101
256.400	-17.696	0.100
256.500	-11.190	0.100
256.600	-3.684	0.100
256.700	-7.727	0.100
256.800	-23.952	0.100
256.900	-6.942	0.100
257.000	-12.846	0.100
257.100	-7.770	0.100
257.200	-1.996	0.100
257.300	-8.516	0.100
257.400	5.806	0.100
257.500	-9.206	0.100
257.600	-18.226	0.100
257.700	-6.331	0.100
257.800	-16.572	0.100
257.900	-24.760	0.100
258.000	-26.884	0.100
258.100	-1.569	0.100
258.200	-10.484	0.100
258.300	-8.052	0.100
258.400	-18.369	0.100
258.500	-27.975	0.100
258.600	-9.068	0.100
258.700	-18.317	0.100
258.800	-19.197	0.100
258.900	-2.598	0.100
259.000	-9.639	0.100
259.100	-20.222	0.100
259.200	-12.335	0.100
259.300	-9.605	0.100
259.400	-18.751	0.100
259.500	-21.334	0.100
259.600	0.104	0.100
259.700	-18.991	0.100
259.800	-21.321	0.100
259.900	-1.916	0.100
260.000	-12.320	0.100
260.100	-2.873	0.100
260.200	-18.693	0.100
260.300	-14.842	0.100
260.400	-8.069	0.100
260.500	-13.603	0.100
260.600	-11.623	0.100
260.700	-6.333	0.100
260.800	-16.262	0.100
260.900	-13.641	0.100
261.000	-5.895	0.100
261.100	-11.080	0.100
261.200	-20.273	0.100
261.300	-14.650	0.100
261.400	-28.760	0.100
261.500	-19.185	0.100
261.600	-3.479	0.100
261.700	-21.895	0.100
261.800	-1.501	0.100
261.900	-5.083	0.100
262.000	-19.221	0.100
262.100	-7.626	0.100
262.200	1.778	0.100
262.300	-11.939	0.100
262.400	-2.347	0.100
262.500	-7.062	0.100
262.600	-30.528	0.100
262.700	-22.328	0.100
262.800	-11.962	0.100
262.900	-6.416	0.100
263.000	-13.158	0.100
263.100	-13.200	0.100
263.200	-8.969	0.100
263.300	-27.891	0.100
263.400	-5.845	0.100
263.500	-4.800	0.100
263.600	-8.917	0.100
263.700	-8.571	0.100
263.800	-32.176	0.100
263.900	-15.186	0.100
264.000	-16.529	0.100
264.100	-5.091	0.100
264.200	-11.612	0.100
264.300	-1.364	0.100
264.400	-12.094	0.100
264.500	-21.026	0.100
264.600	-6.691	0.100
264.700	-10.365	0.100
264.800	-26.332	0.100
264.900	-7.737	0.100
265.000	-26.200	0.100
265.100	-13.788	0.100
265.200	-20.278	0.100
265.300	-25.712	0.100
265.400	-13.015	0.100
265.500	-9.227	0.101
265.600	-18.141	0.100
265.700	-9.637	0.100
265.800	-18.741	0.100
265.900	-24.894	0.100
266.000	-26.232	0.100
266.100	-16.929	0.100
266.200	-17.786	0.100
266.300	-16.091	0.100
266.400	-4.723	0.100
266.500	-8.417	0.100
266.600	-15.543	0.100
266.700	-14.045	0.101
266.800	-14.136	0.100
266.900	-10.181	0.100
267.000	-7.802	0.100
267.100	-18.753	0.100
267.200	-13.877	0.100
267.300	-6.961	0.100
267.400	-3.645	0.101
267.500	-23.506	0.100
267.600	-8.327	0.100
267.700	-3.583	0.100
267.800	-21.413	0.100
267.900	-11.408	0.100
268.000	-1.906	0.100
268.100	-16.774	0.100
268.200	-21.754	0.100
268.300	-4.323	0.100
268.400	-11.629	0.100
268.500	-1.198	0.100
268.600	-9.331	0.101
268.700	-21.567	0.100
268.800	-12.709	0.101
268.900	-16.792	0.100
269.000	5.588	0.100
269.100	-26.586	0.100
269.200	12.794	0.100
269.300	-25.350	0.101
269.400	-11.879	0.100
269.500	-9.880	0.100
269.600	-24.731	0.100
269.700	-15.195	0.100
269.800	-12.665	0.100
269.900	-19.579	0.101
270.000	-31.835	0.100
270.100	-15.816	0.100
270.200	-9.824	0.100
270.300	-23.734	0.100
270.400	-12.407	0.100
270.500	-11.273	0.100
270.600	0.008	0.100
270.700	-21.653	0.100
270.800	-14.459	0.100
270.900	-11.247	0.101
271.000	-27.948	0.100
271.100	-10.766	0.100
271.200	-13.655	0.101
271.300	-12.875	0.100
271.400	-14.680	0.100
271.500	-9.729	0.101
271.600	-21.131	0.100
271.700	-2.359	0.100
271.800	-29.023	0.100
271.900	-9.318	0.100
272.000	-18.104	0.101
272.100	-11.191	0.100
272.200	-13.471	0.100
272.300	-10.302	0.100
272.400	-10.629	0.101
272.500	-13.567	0.101
272.600	-19.272	0.100
272.700	-19.619	0.101
272.800	7.787	0.101
272.900	-14.319	0.101
273.000	-21.721	0.100
273.100	-9.231	0.100
273.200	-1.712	0.100
273.300	-7.576	0.100
273.400	-19.854	0.100
273.500	-12.650	0.100
273.600	-28.331	0.100
273.700	-10.657	0.100
273.800	-16.000	0.100
273.900	-11.708	0.100
274.000	-23.001	0.100
274.100	-15.404	0.100
274.200	-10.034	0.100
274.300	-12.060	0.100
274.400	-16.154	0.100
274.500	-10.930	0.100
274.600	-14.964	0.100
274.700	-15.298	0.100
274.800	-6.510	0.100
274.900	-8.239	0.100
275.000	-23.096	0.100
275.100	-10.739	0.100
275.200	3.358	0.101
275.300	-20.145	0.100
275.400	-13.992	0.101
275.500	-18.107	0.100
275.600	-11.170	0.100
275.700	-24.682	0.100
275.800	-17.668	0.100
275.900	-18.354	0.101
276.000	-0.791	0.100
276.100	-13.518	0.100
276.200	-4.187	0.100
276.300	-11.133	0.100
276.400	-5.594	0.101
276.500	-23.654	0.100
276.600	-10.588	0.100
276.700	-8.792	0.101
276.800	-14.723	0.100
276.900	-23.468	0.100
277.000	-21.122	0.100
277.100	-7.935	0.100
277.200	-14.573	0.100
277.300	-17.752	0.100
277.400	-11.119	0.101
277.500	-13.062	0.100
277.600	-9.797	0.100
277.700	-10.149	0.100
277.800	-14.399	0.100
277.900	-7.564	0.100
278.000	-17.613	0.100
278.100	-12.225	0.100
278.200	-27.561	0.100
278.300	-15.813	0.100
278.400	-6.467	0.100
278.500	-10.254	0.100
278.600	-10.320	0.100
278.700	-1.735	0.100
278.800	-16.544	0.100
278.900	-16.786	0.100
279.000	-2.352	0.100
279.100	-24.484	0.100
279.200	-14.574	0.100
279.300	-18.372	0.100
279.400	-8.372	0.100
279.500	-17.766	0.100
279.600	-5.334	0.100
279.700	-7.180	0.100
279.800	-18.966	0.100
279.900	-16.275	0.100
280.000	-12.850	0.100
280.100	-16.097	0.100
280.200	-19.892	0.100
280.300	-16.408	0.100
280.400	-9.502	0.100
280.500	-20.363	0.100
280.600	-14.633	0.100
280.700	-15.449	0.100
280.800	0.035	0.100
280.900	-19.078	0.100
281.000	-12.716	0.100
281.100	-7.964	0.100
281.200	-11.737	0.100
281.300	-18.596	0.100
281.400	-12.387	0.100
281.500	-6.806	0.100
281.600	-11.272	0.100
281.700	-7.677	0.100
281.800	-8.251	0.100
281.900	-16.597	0.100
282.000	-8.384	0.100
282.100	-7.532	0.100
282.200	-9.868	0.100
282.300	-23.748	0.100
282.400	-1.856	0.100
282.500	-5.339	0.100
282.600	-10.674	0.100
282.700	-9.982	0.100
282.800	-16.326	0.100
282.900	-20.228	0.100
283.000	-9.398	0.100
283.100	-3.249	0.100
283.200	-4.923	0.100
283.300	-9.956	0.100
283.400	-15.477	0.100
283.500	-15.773	0.100
283.600	-16.698	0.100
283.700	-11.282	0.100
283.800	-14.527	0.100
283.900	-2.592	0.100
284.000	-16.075	0.100
284.100	-14.033	0.100
284.200	-10.675	0.101
284.300	-15.194	0.101
284.400	-3.820	0.100
284.500	-15.647	0.100
284.600	-5.205	0.100
284.700	-9.372	0.100
284.800	-9.851	0.100
284.900	-8.655	0.100
285.000	-3.132	0.101
285.100	-24.728	0.101
285.200	-8.541	0.101
285.300	-14.362	0.100
285.400	7.440	0.100
285.500	-19.901	0.100
285.600	-25.043	0.100
285.700	-9.734	0.100
285.800	-7.656	0.100
285.900	-14.743	0.100
286.000	-19.564	0.100
286.100	0.830	0.100
286.200	-22.630	0.100
286.300	-24.673	0.100
286.400	-3.435	0.100
286.500	-16.792	0.100
286.600	-5.818	0.101
286.700	-1.884	0.100
286.800	-24.620	0.100
286.900	-14.094	0.100
287.000	-16.180	0.100
287.100	-7.568	0.101
287.200	-11.014	0.100
287.300	-11.583	0.100
287.400	-11.151	0.100
287.500	-12.267	0.100
287.600	-8.948	0.100
287.700	-16.179	0.100
287.800	-6.438	0.100
287.900	-10.453	0.100
288.000	3.901	0.101
288.100	-17.776	0.100
288.200	-17.723	0.100
288.300	-12.280	0.100
288.400	-26.480	0.100
288.500	-5.640	0.100
288.600	-15.455	0.100
288.700	-6.434	0.100
288.800	-9.264	0.101
288.900	-6.078	0.100
289.000	-11.134	0.100
289.100	-10.402	0.101
289.200	-0.791	0.100
289.300	-14.586	0.100
289.400	-25.653	0.100
289.500	-0.200	0.100
289.600	-12.451	0.100
289.700	-16.086	0.100
289.800	-9.617	0.100
289.900	-14.849	0.100
290.000	-5.354	0.101
290.100	-5.782	0.100
290.200	3.947	0.100
290.300	-15.878	0.100
290.400	-20.745	0.100
290.500	-8.082	0.100
290.600	-4.694	0.100
290.700	-8.841	0.100
290.800	3.301	0.100
290.900	-7.701	0.100
291.000	-4.727	0.101
291.100	-22.723	0.100
291.200	-3.382	0.100
291.300	-19.712	0.100
291.400	-12.668	0.101
291.500	-11.039	0.100
291.600	-5.593	0.101
291.700	-10.177	0.100
291.800	-13.721	0.100
291.900	-8.106	0.101
292.000	-2.578	0.100
292.100	-6.750	0.100
292.200	-18.297	0.101
292.300	-10.920	0.100
292.400	-8.653	0.100
292.500	-25.429	0.100
292.600	-8.778	0.100
292.700	-10.988	0.100
292.800	-15.714	0.100
292.900	-7.196	0.100
293.000	-17.831	0.100
293.100	-15.683	0.100
293.200	-18.406	0.100
293.300	-5.990	0.100
293.400	-1.009	0.101
293.500	-13.322	0.101
293.600	-15.745	0.100
293.700	-8.821	0.101
293.800	-6.866	0.100
293.900	-6.908	0.100
294.000	-1.648	0.100
294.100	-21.500	0.100
294.200	0.161	0.100
294.300	-16.411	0.100
294.400	-27.240	0.100
294.500	5.995	0.100
294.600	-13.373	0.100
294.700	-21.085	0.100
294.800	-1.523	0.101
294.900	-21.154	0.101
295.000	-14.092	0.100
295.100	-17.527	0.100
295.200	6.293	0.100
295.300	-10.497	0.100
295.400	-18.183	0.101
295.500	3.301	0.100
295.600	-3.735	0.100
295.700	-20.429	0.100
295.800	-8.104	0.100
295.900	-23.767	0.100
296.000	-18.723	0.100
296.100	-3.162	0.100
296.200	-22.684	0.100
296.300	-17.081	0.100
296.400	-14.515	0.101
296.500	-9.199	0.100
296.600	-3.522	0.100
296.700	-11.007	0.100
296.800	-23.726	0.100
296.900	-15.455	0.100
297.000	-1.003	0.100
297.100	-5.516	0.100
297.200	-21.466	0.100
297.300	-5.672	0.100
297.400	-21.032	0.100
297.500	-7.124	0.100
297.600	-8.256	0.100
297.700	-23.279	0.100
297.800	-9.171	0.100
297.900	-16.729	0.100
298.000	-5.062	0.100
298.100	-10.786	0.100
298.200	-11.880	0.100
298.300	-24.567	0.100
298.400	-22.052	0.100
298.500	-12.091	0.100
298.600	-6.298	0.100
298.700	-10.665	0.100
298.800	-14.843	0.100
298.900	-3.938	0.100
299.000	-10.907	0.100
299.100	-12.412	0.100
299.200	-11.965	0.100
299.300	-2.347	0.100
299.400	-17.755	0.100
299.500	-3.697	0.100
299.600	-1.481	0.100
299.700	5.614	0.100
299.800	5.014	0.101
299.900	-17.891	0.100
300.000	-23.137	0.100
300.100	-12.610	0.100
300.200	-15.700	0.100
300.300	7.217	0.100
300.400	-22.673	0.100
300.500	-14.335	0.100
300.600	-18.390	0.100
300.700	0.262	0.100
300.800	-16.779	0.100
300.900	1.182	0.100
301.000	-5.717	0.100
301.100	-17.399	0.100
301.200	-11.746	0.100
301.300	-7.191	0.100
301.400	-24.641	0.100
301.500	-17.403	0.100
301.600	-13.711	0.100
301.700	0.943	0.100
301.800	-8.156	0.100
301.900	-3.047	0.100
302.000	-16.366	0.100
302.100	-1.639	0.100
302.200	-12.255	0.100
302.300	-1.228	0.100
302.400	-9.731	0.100
302.500	-29.121	0.100
302.600	-9.196	0.100
302.700	-11.869	0.100
302.800	-14.421	0.100
302.900	-10.498	0.100
303.000	-20.852	0.100
303.100	-17.927	0.100
303.200	2.985	0.100
303.300	-17.047	0.100
303.400	-8.842	0.100
303.500	-6.346	0.100
303.600	-20.667	0.100
303.700	-16.896	0.100
303.800	-7.108	0.100
303.900	-4.697	0.100
304.000	-21.520	0.100
304.100	2.655	0.100
304.200	-15.724	0.101
304.300	-15.623	0.100
304.400	-14.828	0.100
304.500	-4.774	0.100
304.600	-13.624	0.100
304.700	-14.698	0.100
304.800	-2.027	0.100
304.900	-9.116	0.100
305.000	-6.783	0.100
305.100	-8.859	0.100
305.200	-17.502	0.100
305.300	-11.269	0.100
305.400	-10.093	0.100
305.500	-0.226	0.100
305.600	-0.908	0.100
305.700	-24.539	0.100
305.800	-9.309	0.100
305.900	-10.652	0.100
306.000	-0.118	0.100
306.100	-14.863	0.101
306.200	-10.829	0.100
306.300	-18.573	0.100
306.400	-22.988	0.100
306.500	-9.961	0.100
306.600	-23.655	0.100
306.700	-9.319	0.100
306.800	-6.891	0.100
306.900	-7.122	0.100
307.000	-10.061	0.100
307.100	-10.838	0.100
307.200	-10.476	0.100
307.300	-2.173	0.100
307.400	-16.024	0.100
307.500	-10.845	0.100
307.600	-18.212	0.100
307.700	0.243	0.100
307.800	0.791	0.100
307.900	-12.683	0.100
308.000	-10.043	0.100
308.100	-15.123	0.100
308.200	-8.620	0.100
308.300	-15.115	0.100
308.400	-11.286	0.100
308.500	-24.204	0.100
308.600	-13.326	0.100
308.700	-12.114	0.100
308.800	-22.947	0.100
308.900	-9.219	0.100
309.000	-9.409	0.100
309.100	-12.088	0.100
309.200	-7.755	0.100
309.300	-8.565	0.100
309.400	4.480	0.100
309.500	1.734	0.100
309.600	-7.556	0.100
309.700	-3.250	0.100
309.800	-24.135	0.100
309.900	-9.393	0.100
310.000	0.048	0.100
310.100	-2.255	0.100
310.200	-12.604	0.100
310.300	-22.805	0.100
310.400	-3.481	0.100
310.500	1.582	0.100
310.600	-18.013	0.100
310.700	-23.200	0.100
310.800	0.847	0.100
310.900	-13.041	0.100
311.000	-9.688	0.100
311.100	-8.736	0.100
311.200	-8.220	0.100
311.300	-5.628	0.100
311.400	-10.153	0.100
311.500	-10.381	0.101
311.600	-13.444	0.100
311.700	-28.503	0.100
311.800	-7.430	0.100
311.900	3.618	0.100
312.000	-12.918	0.100
312.100	-14.293	0.100
312.200	-10.938	0.100
312.300	1.888	0.100
312.400	-12.263	0.101
312.500	-7.234	0.100
312.600	-21.793	0.100
312.700	-16.557	0.100
312.800	-16.370	0.100
312.900	-11.133	0.100
313.000	-7.091	0.100
313.100	-8.921	0.100
313.200	-12.663	0.100
313.300	-20.999	0.100
313.400	-7.144	0.100
313.500	-3.568	0.100
313.600	-6.974	0.100
313.700	-14.695	0.100
313.800	-11.911	0.100
313.900	-3.400	0.100
314.000	0.453	0.100
314.100	-11.081	0.100
314.200	-16.523	0.100
314.300	-9.094	0.100
314.400	-0.694	0.100
314.500	-31.479	0.100
314.600	-1.978	0.100
314.700	-18.305	0.100
314.800	-5.140	0.100
314.900	-7.845	0.100
315.000	-5.878	0.100
315.100	-14.725	0.100
315.200	-11.701	0.100
315.300	-18.238	0.100
315.400	-23.348	0.100
315.500	-5.023	0.100
315.600	2.197	0.100
315.700	-1.683	0.100
315.800	-6.753	0.100
315.900	-3.256	0.100
316.000	-10.330	0.100
316.100	-6.326	0.100
316.200	-14.993	0.100
316.300	-10.626	0.100
316.400	-18.781	0.100
316.500	-7.492	0.100
316.600	-1.362	0.100
316.700	-6.584	0.100
316.800	-21.161	0.100
316.900	2.801	0.100
317.000	-3.626	0.100
317.100	-17.037	0.100
317.200	-10.114	0.100
317.300	4.819	0.100
317.400	-12.866	0.101
317.500	-10.903	0.100
317.600	-5.169	0.100
317.700	-6.991	0.100
317.800	-17.984	0.100
317.900	-13.877	0.100
318.000	-21.794	0.100
318.100	-6.796	0.100
318.200	-6.244	0.100
318.300	-16.232	0.100
318.400	-15.901	0.100
318.500	-14.023	0.100
318.600	-6.962	0.101
318.700	-2.245	0.101
318.800	-4.685	0.101
318.900	-21.555	0.100
319.000	-11.533	0.100
319.100	-20.778	0.100
319.200	-4.452	0.100
319.300	-8.308	0.100
319.400	-8.077	0.100
319.500	-14.624	0.100
319.600	-3.976	0.100
319.700	-12.116	0.100
319.800	-18.992	0.100
319.900	-12.581	0.100
320.000	-0.828	0.100
320.100	-9.851	0.100
320.200	-1.648	0.100
320.300	-15.042	0.100
320.400	-17.482	0.100
320.500	-4.914	0.100
320.600	-18.939	0.100
320.700	-1.223	0.100
320.800	-22.157	0.100
320.900	-6.198	0.100
321.000	-4.595	0.100
321.100	-11.664	0.100
321.200	1.906	0.100
321.300	-17.212	0.100
321.400	-9.878	0.100
321.500	-8.975	0.100
321.600	-3.426	0.100
321.700	-0.553	0.100
321.800	-1.303	0.100
321.900	-6.505	0.100
322.000	-17.402	0.100
322.100	-5.964	0.100
322.200	-4.879	0.100
322.300	-10.617	0.100
322.400	-21.669	0.100
322.500	-14.630	0.100
322.600	-6.640	0.100
322.700	-10.497	0.100
322.800	-20.344	0.100
322.900	-21.842	0.100
323.000	-8.875	0.100
323.100	-19.592	0.100
323.200	-16.976	0.100
323.300	-13.185	0.100
323.400	-2.546	0.100
323.500	-13.795	0.100
323.600	-15.493	0.100
323.700	-26.909	0.100
323.800	-10.152	0.100
323.900	-13.609	0.100
324.000	-12.850	0.100
324.100	-8.253	0.100
324.200	-17.148	0.100
324.300	-4.671	0.100
324.400	14.066	0.101
324.500	-10.096	0.100
324.600	-28.517	0.100
324.700	-9.135	0.100
324.800	-5.339	0.100
324.900	-9.248	0.100
325.000	-7.076	0.100
325.100	-3.870	0.100
325.200	-23.439	0.100
325.300	-17.510	0.100
325.400	-19.421	0.100
325.500	-17.631	0.100
325.600	-19.223	0.100
325.700	-3.397	0.100
325.800	-12.574	0.100
325.900	1.139	0.100
326.000	-13.507	0.100
326.100	-11.387	0.100
326.200	-22.057	0.100
326.300	-6.278	0.100
326.400	-24.860	0.100
326.500	-11.671	0.100
326.600	4.851	0.100
326.700	-2.132	0.100
326.800	-9.276	0.100
326.900	-17.825	0.100
327.000	-13.100	0.100
327.100	2.168	0.100
327.200	-18.386	0.100
327.300	-11.146	0.100
327.400	-8.630	0.100
327.500	-14.078	0.100
327.600	-8.575	0.100
327.700	-18.819	0.100
327.800	-12.775	0.100
327.900	-11.116	0.100
328.000	-23.349	0.100
328.100	-9.929	0.100
328.200	-9.329	0.100
328.300	-12.455	0.100
328.400	-6.951	0.100
328.500	1.966	0.100
328.600	-16.403	0.100
328.700	-2.415	0.100
328.800	-13.700	0.100
328.900	-1.718	0.100
329.000	-11.811	0.100
329.100	-6.633	0.100
329.200	-8.311	0.100
329.300	-9.489	0.100
329.400	-6.188	0.100
329.500	2.459	0.100
329.600	-5.657	0.100
329.700	-11.709	0.100
329.800	-0.391	0.100
329.900	-14.655	0.100
330.000	-2.634	0.100
330.100	-7.840	0.100
330.200	-10.354	0.100
330.300	16.345	0.100
330.400	-8.865	0.100
330.500	-13.174	0.100
330.600	9.855	0.100
330.700	-3.779	0.100
330.800	6.055	0.100
330.900	-1.508	0.100
331.000	0.388	0.100
331.100	5.179	0.100
331.200	1.950	0.100
331.300	-9.543	0.100
331.400	10.932	0.100
331.500	3.092	0.100
331.600	-3.474	0.100
331.700	-16.699	0.100
331.800	6.188	0.100
331.900	11.185	0.100
332.000	16.044	0.100
332.100	3.970	0.100
332.200	-1.334	0.100
332.300	1.040	0.100
332.400	4.540	0.100
332.500	16.217	0.100
332.600	6.050	0.100
332.700	10.941	0.100
332.800	15.162	0.100
332.900	-11.579	0.100
333.000	15.189	0.100
333.100	11.771	0.100
333.200	6.032	0.100
333.300	16.899	0.100
333.400	0.785	0.100
333.500	20.004	0.100
333.600	5.780	0.100
333.700	13.739	0.100
333.800	10.926	0.100
333.900	8.948	0.100
334.000	-3.068	0.100
334.100	0.953	0.100
334.200	13.841	0.100
334.300	9.794	0.100
334.400	-3.422	0.100
334.500	8.714	0.100
334.600	-4.472	0.100
334.700	19.934	0.100
334.800	28.475	0.100
334.900	14.921	0.100
335.000	4.098	0.100
335.100	-1.574	0.100
335.200	2.667	0.100
335.300	13.625	0.100
335.400	16.331	0.100
335.500	13.757	0.100
335.600	-1.086	0.100
335.700	10.855	0.100
335.800	10.857	0.100
335.900	-0.316	0.100
336.000	13.915	0.100
336.100	2.393	0.100
336.200	1.296	0.100
336.300	7.816	0.100
336.400	4.968	0.100
336.500	4.473	0.100
336.600	-1.595	0.100
336.700	0.840	0.100
336.800	3.238	0.100
336.900	14.984	0.100
337.000	12.580	0.100
337.100	19.845	0.100
337.200	8.949	0.100
337.300	-3.883	0.100
337.400	5.528	0.100
337.500	17.321	0.100
337.600	9.001	0.100
337.700	12.792	0.100
337.800	15.419	0.100
337.900	7.411	0.100
338.000	10.534	0.100
338.100	16.479	0.100
338.200	5.817	0.100
338.300	9.378	0.101
338.400	0.089	0.100
338.500	14.477	0.100
338.600	3.614	0.100
338.700	13.271	0.100
338.800	3.695	0.100
338.900	4.794	0.100
339.000	15.109	0.100
339.100	13.425	0.100
339.200	6.748	0.101
339.300	12.609	0.100
339.400	-1.763	0.100
339.500	1.837	0.100
339.600	5.322	0.100
339.700	15.805	0.100
339.800	-0.421	0.100
339.900	13.102	0.100
340.000	12.443	0.100
340.100	22.304	0.100
340.200	-4.099	0.100
340.300	3.588	0.100
340.400	30.609	0.100
340.500	18.507	0.100
340.600	0.439	0.100
340.700	10.595	0.100
340.800	-2.353	0.100
340.900	13.235	0.100
341.000	18.947	0.100
341.100	20.472	0.100
341.200	3.860	0.100
341.300	10.458	0.100
341.400	12.657	0.100
341.500	-4.153	0.100
341.600	26.845	0.100
341.700	14.919	0.100
341.800	2.795	0.100
341.900	4.591	0.100
342.000	7.991	0.100
342.100	14.031	0.100
342.200	21.117	0.100
342.300	12.400	0.100
342.400	11.706	0.100
342.500	17.527	0.100
342.600	14.331	0.100
342.700	22.850	0.100
342.800	16.730	0.100
342.900	3.726	0.100
343.000	12.555	0.100
343.100	22.100	0.100
343.200	17.821	0.100
343.300	17.656	0.100
343.400	20.141	0.100
343.500	5.553	0.100
343.600	9.712	0.100
343.700	11.790	0.100
343.800	9.962	0.100
343.900	0.822	0.100
344.000	0.874	0.100
344.100	31.326	0.100
344.200	20.289	0.100
344.300	13.511	0.100
344.400	11.925	0.100
344.500	35.291	0.100
344.600	6.000	0.100
344.700	17.696	0.100
344.800	15.028	0.100
344.900	8.044	0.100
345.000	19.561	0.100
345.100	20.781	0.100
345.200	17.843	0.100
345.300	18.861	0.100
345.400	18.478	0.100
345.500	14.330	0.100
345.600	15.383	0.100
345.700	11.941	0.100
345.800	12.329	0.100
345.900	22.041	0.100
346.000	9.162	0.100
346.100	7.335	0.100
346.200	23.820	0.100
346.300	16.245	0.100
346.400	11.967	0.100
346.500	16.758	0.100
346.600	31.666	0.100
346.700	16.127	0.100
346.800	25.856	0.100
346.900	29.720	0.100
347.000	22.352	0.100
347.100	9.094	0.100
347.200	13.806	0.100
347.300	28.790	0.100
347.400	7.036	0.100
347.500	8.292	0.100
347.600	24.497	0.100
347.700	9.749	0.100
347.800	16.570	0.100
347.900	11.569	0.100
348.000	18.624	0.100
348.100	18.900	0.100
348.200	10.414	0.100
348.300	11.681	0.100
348.400	19.740	0.100
348.500	9.778	0.100
348.600	15.961	0.100
348.700	12.439	0.100
348.800	27.319	0.100
348.900	21.789	0.100
349.000	22.781	0.100
349.100	20.916	0.100
349.200	15.685	0.100
349.300	19.461	0.100
349.400	23.801	0.100
349.500	31.235	0.100
349.600	6.740	0.100
349.700	18.407	0.100
349.800	22.932	0.100
349.900	5.204	0.100
350.000	26.425	0.100
350.100	14.967	0.100
350.200	22.002	0.100
350.300	24.307	0.100
350.400	28.462	0.100
350.500	13.161	0.100
350.600	9.752	0.100
350.700	5.906	0.100
350.800	8.573	0.100
350.900	24.270	0.100
351.000	29.287	0.100
351.100	28.352	0.100
351.200	17.064	0.100
351.300	31.305	0.100
351.400	26.156	0.100
351.500	15.889	0.100
351.600	4.670	0.100
351.700	10.062	0.100
351.800	20.197	0.100
351.900	4.343	0.100
352.000	15.669	0.100
352.100	24.094	0.100
352.200	18.311	0.100
352.300	28.104	0.100
352.400	24.233	0.100
352.500	7.150	0.100
352.600	22.435	0.100
352.700	17.583	0.100
352.800	25.569	0.100
352.900	19.435	0.100
353.000	29.366	0.100
353.100	16.522	0.100
353.200	23.613	0.100
353.300	16.273	0.100
353.400	25.106	0.100
353.500	13.923	0.100
353.600	18.330	0.100
353.700	30.841	0.100
353.800	17.501	0.100
353.900	24.617	0.100
354.000	10.921	0.101
354.100	15.652	0.100
354.200	19.570	0.100
354.300	30.308	0.100
354.400	24.609	0.100
354.500	10.661	0.100
354.600	6.300	0.100
354.700	29.012	0.100
354.800	28.405	0.100
354.900	25.122	0.100
355.000	29.947	0.100
355.100	20.067	0.100
355.200	21.777	0.100
355.300	18.432	0.100
355.400	25.493	0.100
355.500	25.025	0.100
355.600	26.163	0.100
355.700	9.207	0.100
355.800	27.286	0.100
355.900	19.754	0.100
356.000	27.384	0.100
356.100	7.501	0.100
356.200	14.621	0.100
356.300	28.016	0.100
356.400	20.449	0.100
356.500	17.694	0.100
356.600	30.964	0.100
356.700	26.753	0.100
356.800	29.557	0.100
356.900	9.477	0.100
357.000	33.758	0.100
357.100	20.176	0.100
357.200	19.918	0.100
357.300	12.532	0.100
357.400	19.573	0.100
357.500	19.174	0.100
357.600	32.750	0.100
357.700	26.399	0.101
357.800	27.631	0.100
357.900	28.589	0.100
358.000	22.322	0.100
358.100	19.698	0.100
358.200	11.783	0.100
358.300	17.532	0.100
358.400	30.293	0.100
358.500	25.781	0.100
358.600	12.856	0.100
358.700	26.253	0.100
358.800	30.230	0.100
358.900	5.035	0.100
359.000	17.215	0.100
359.100	26.092	0.100
359.200	43.075	0.100
359.300	29.453	0.100
359.400	15.204	0.100
359.500	28.175	0.100
359.600	12.495	0.100
359.700	21.410	0.100
359.800	22.698	0.100
359.900	21.536	0.100
360.000	22.674	0.100
360.100	21.442	0.100
360.200	18.983	0.100
360.300	28.831	0.100
360.400	29.274	0.100
360.500	16.358	0.100
360.600	24.162	0.100
360.700	25.155	0.100
360.800	27.828	0.100
360.900	20.317	0.100
361.000	23.046	0.100
361.100	16.575	0.100
361.200	27.601	0.100
361.300	23.828	0.100
361.400	29.972	0.100
361.500	22.965	0.100
361.600	23.927	0.100
361.700	17.697	0.100
361.800	32.228	0.100
361.900	32.038	0.100
362.000	6.758	0.100
362.100	-2.207	0.100
362.200	22.664	0.100
362.300	37.877	0.100
362.400	21.357	0.100
362.500	23.213	0.100
362.600	13.254	0.100
362.700	25.222	0.100
362.800	18.053	0.100
362.900	20.986	0.100
363.000	21.578	0.100
363.100	28.863	0.100
363.200	16.363	0.100
363.300	35.121	0.100
363.400	39.547	0.100
363.500	13.074	0.100
363.600	23.570	0.100
363.700	22.210	0.100
363.800	24.251	0.100
363.900	32.627	0.100
364.000	29.309	0.100
364.100	18.750	0.100
364.200	17.539	0.100
364.300	28.250	0.100
364.400	38.482	0.100
364.500	18.359	0.100
364.600	28.817	0.100
364.700	36.169	0.100
364.800	26.966	0.100
364.900	26.112	0.101
365.000	14.760	0.100
365.100	28.795	0.100
365.200	25.752	0.100
365.300	28.092	0.100
365.400	26.898	0.100
365.500	23.374	0.100
365.600	27.055	0.100
365.700	28.768	0.100
365.800	18.211	0.100
365.900	44.332	0.100
366.000	17.558	0.100
366.100	14.337	0.100
366.200	24.223	0.100
366.300	27.166	0.100
366.400	16.979	0.100
366.500	19.429	0.100
366.600	22.187	0.100
366.700	32.711	0.100
366.800	25.455	0.100
366.900	34.455	0.100
367.000	28.383	0.100
367.100	28.199	0.100
367.200	22.487	0.100
367.300	33.093	0.100
367.400	22.317	0.100
367.500	27.460	0.100
367.600	24.430	0.100
367.700	30.776	0.100
367.800	18.207	0.100
367.900	32.680	0.100
368.000	23.191	0.100
368.100	22.121	0.100
368.200	12.376	0.100
368.300	33.713	0.100
368.400	11.396	0.100
368.500	36.025	0.100
368.600	18.785	0.100
368.700	21.575	0.100
368.800	36.248	0.100
368.900	17.552	0.100
369.000	30.093	0.100
369.100	20.897	0.100
369.200	32.251	0.100
369.300	27.814	0.100
369.400	26.637	0.100
369.500	33.069	0.100
369.600	32.656	0.100
369.700	13.699	0.100
369.800	16.798	0.100
369.900	33.213	0.100
370.000	24.287	0.100
370.100	16.775	0.100
370.200	47.001	0.100
370.300	22.852	0.100
370.400	11.532	0.100
370.500	34.394	0.100
370.600	15.734	0.100
370.700	31.642	0.100
370.800	28.785	0.100
370.900	24.317	0.100
371.000	19.465	0.100
371.100	16.899	0.100
371.200	37.491	0.100
371.300	21.407	0.100
371.400	22.064	0.100
371.500	34.526	0.100
371.600	21.980	0.100
371.700	37.338	0.100
371.800	9.969	0.100
371.900	5.886	0.100
372.000	24.067	0.100
372.100	23.840	0.100
372.200	39.739	0.100
372.300	18.322	0.100
372.400	22.020	0.100
372.500	46.410	0.100
372.600	33.809	0.100
372.700	26.673	0.100
372.800	38.538	0.100
372.900	23.872	0.100
373.000	27.099	0.100
373.100	23.661	0.100
373.200	22.141	0.100
373.300	24.607	0.100
373.400	34.405	0.100
373.500	37.288	0.100
373.600	28.378	0.100
373.700	17.043	0.100
373.800	26.113	0.100
373.900	18.585	0.100
374.000	37.401	0.100
374.100	36.261	0.100
374.200	25.431	0.100
374.300	26.766	0.100
374.400	45.627	0.100
374.500	24.650	0.100
374.600	16.070	0.100
374.700	21.906	0.100
374.800	17.166	0.100
374.900	16.358	0.100
375.000	34.120	0.100
375.100	22.383	0.100
375.200	20.311	0.100
375.300	31.811	0.100
375.400	28.274	0.100
375.500	34.376	0.100
375.600	17.750	0.100
375.700	31.747	0.100
375.800	23.142	0.100
375.900	24.719	0.100
376.000	36.805	0.100
376.100	13.294	0.100
376.200	30.354	0.100
376.300	22.993	0.100
376.400	25.921	0.100
376.500	29.150	0.100
376.600	30.360	0.100
376.700	23.032	0.100
376.800	21.521	0.100
376.900	32.466	0.100
377.000	13.722	0.100
377.100	23.477	0.100
377.200	25.926	0.100
377.300	32.625	0.100
377.400	24.934	0.100
377.500	29.691	0.100
377.600	25.932	0.100
377.700	23.768	0.100
377.800	36.338	0.100
377.900	25.448	0.100
378.000	32.262	0.100
378.100	32.738	0.100
378.200	26.284	0.100
378.300	39.256	0.100
378.400	45.398	0.100
378.500	25.403	0.100
378.600	28.262	0.100
378.700	34.393	0.100
378.800	22.294	0.100
378.900	40.218	0.100
379.000	35.353	0.100
379.100	37.582	0.100
379.200	29.443	0.100
379.300	20.417	0.100
379.400	12.006	0.100
379.500	34.508	0.100
379.600	52.883	0.100
379.700	27.507	0.100
379.800	17.155	0.100
379.900	41.674	0.100
380.000	17.925	0.100
380.100	28.510	0.100
380.200	37.162	0.100
380.300	25.426	0.100
380.400	16.278	0.100
380.500	32.398	0.100
380.600	30.878	0.100
380.700	20.275	0.100
380.800	7.017	0.100
380.900	36.956	0.100
381.000	27.898	0.100
381.100	21.952	0.100
381.200	29.777	0.100
381.300	29.856	0.100
381.400	17.787	0.100
381.500	30.933	0.100
381.600	31.457	0.100
381.700	40.463	0.100
381.800	29.134	0.100
381.900	23.057	0.100
382.000	22.185	0.100
382.100	34.158	0.100
382.200	31.156	0.100
382.300	30.709	0.100
382.400	32.388	0.100
382.500	39.921	0.100
382.600	16.606	0.100
382.700	19.216	0.100
382.800	32.611	0.100
382.900	28.258	0.100
383.000	27.333	0.100
383.100	26.818	0.100
383.200	30.014	0.100
383.300	32.140	0.100
383.400	31.100	0.100
383.500	33.766	0.100
383.600	34.665	0.100
383.700	23.635	0.100
383.800	35.018	0.100
383.900	20.478	0.100
384.000	33.983	0.100
384.100	31.708	0.100
384.200	21.933	0.100
384.300	42.315	0.100
384.400	17.415	0.100
384.500	22.963	0.100
384.600	37.648	0.100
384.700	31.979	0.100
384.800	36.834	0.100
384.900	11.909	0.100
385.000	33.296	0.100
385.100	28.338	0.100
385.200	26.425	0.100
385.300	32.853	0.100
385.400	19.289	0.100
385.500	32.106	0.100
385.600	28.500	0.100
385.700	19.379	0.100
385.800	21.843	0.100
385.900	40.328	0.100
386.000	41.960	0.100
386.100	22.181	0.100
386.200	33.101	0.100
386.300	32.552	0.100
386.400	41.324	0.100
386.500	21.814	0.100
386.600	22.645	0.100
386.700	46.043	0.100
386.800	35.616	0.100
386.900	8.996	0.100
387.000	19.357	0.100
387.100	27.630	0.100
387.200	21.068	0.100
387.300	38.834	0.100
387.400	20.656	0.100
387.500	35.518	0.100
387.600	16.380	0.100
387.700	36.685	0.100
387.800	37.344	0.100
387.900	18.447	0.100
388.000	33.518	0.100
388.100	33.149	0.100
388.200	17.912	0.100
388.300	17.783	0.100
388.400	37.885	0.100
388.500	35.241	0.100
388.600	35.375	0.100
388.700	22.254	0.100
388.800	26.294	0.100
388.900	33.219	0.100
389.000	42.610	0.100
389.100	23.095	0.100
389.200	36.693	0.100
389.300	14.914	0.100
389.400	27.396	0.100
389.500	33.879	0.100
389.600	29.972	0.100
389.700	27.619	0.100
389.800	17.598	0.100
389.900	19.444	0.100
390.000	31.611	0.100
390.100	28.474	0.100
390.200	25.800	0.100
390.300	22.323	0.100
390.400	21.453	0.100
390.500	15.642	0.100
390.600	30.236	0.100
390.700	18.671	0.100
390.800	3.636	0.100
390.900	25.591	0.100
391.000	13.577	0.100
391.100	25.202	0.100
391.200	7.183	0.100
391.300	17.755	0.100
391.400	6.885	0.100
391.500	5.232	0.100
391.600	19.128	0.100
391.700	0.924	0.100
391.800	5.826	0.100
391.900	8.480	0.100
392.000	21.183	0.100
392.100	6.217	0.100
392.200	15.297	0.100
392.300	5.668	0.100
392.400	5.973	0.100
392.500	10.731	0.100
392.600	4.797	0.100
392.700	10.918	0.100
392.800	1.952	0.100
392.900	3.868	0.100
393.000	4.268	0.100
393.100	5.202	0.100
393.200	2.386	0.100
393.300	10.390	0.100
393.400	-7.432	0.100
393.500	5.056	0.100
393.600	-2.183	0.100
393.700	1.201	0.100
393.800	4.623	0.100
393.900	2.522	0.100
394.000	1.116	0.100
394.100	0.274	0.100
394.200	-3.179	0.100
394.300	1.423	0.100
394.400	-4.182	0.100
394.500	4.407	0.100
394.600	13.185	0.100
394.700	-14.466	0.100
394.800	-10.519	0.100
394.900	-5.305	0.100
395.000	12.223	0.100
395.100	-5.732	0.100
395.200	9.800	0.100
395.300	-3.422	0.100
395.400	9.162	0.100
395.500	1.247	0.100
395.600	-15.266	0.100
395.700	-7.185	0.100
395.800	-6.856	0.100
395.900	6.369	0.100
396.000	-12.344	0.100
396.100	-10.046	0.100
396.200	9.031	0.100
396.300	-4.448	0.100
396.400	-17.250	0.100
396.500	-8.280	0.100
396.600	-3.690	0.100
396.700	1.984	0.100
396.800	-9.898	0.100
396.900	14.776	0.100
397.000	-4.552	0.100
397.100	0.733	0.100
397.200	-3.949	0.100
397.300	-14.996	0.100
397.400	0.592	0.100
397.500	-4.022	0.100
397.600	-10.034	0.100
397.700	-9.886	0.100
397.800	-13.292	0.100
397.900	-17.497	0.100
398.000	-10.009	0.100
398.100	-0.829	0.100
398.200	-2.978	0.100
398.300	-9.071	0.100
398.400	1.931	0.100
398.500	10.157	0.100
398.600	-8.814	0.100
398.700	-2.951	0.100
398.800	1.123	0.100
398.900	-19.767	0.100
399.000	-5.771	0.100
399.100	-5.402	0.100
399.200	1.869	0.100
399.300	-4.857	0.100
399.400	-18.868	0.100
399.500	-11.812	0.100
399.600	-1.061	0.100
399.700	-13.890	0.100
399.800	-15.747	0.100
399.900	-2.066	0.100
400.000	-3.802	0.100
400.100	-9.904	0.100
400.200	-8.133	0.100
400.300	-9.747	0.100
400.400	11.860	0.100
400.500	-6.181	0.100
400.600	-2.929	0.100
400.700	-15.194	0.100
400.800	2.091	0.100
400.900	-14.742	0.100
401.000	-21.347	0.100
401.100	-4.378	0.100
401.200	-7.996	0.100
401.300	1.427	0.100
401.400	-7.125	0.100
401.500	-6.654	0.100
401.600	-3.154	0.100
401.700	-20.563	0.100
401.800	-8.802	0.100
401.900	-20.598	0.100
402.000	-0.344	0.100
402.100	-7.369	0.100
402.200	-3.736	0.100
402.300	-15.259	0.100
402.400	-9.172	0.100
402.500	-16.965	0.100
402.600	-20.846	0.100
402.700	-2.844	0.100
402.800	-5.577	0.100
402.900	-13.571	0.100
403.000	-14.607	0.100
403.100	-14.807	0.100
403.200	-12.199	0.100
403.300	-12.464	0.100
403.400	-1.985	0.100
403.500	-14.270	0.100
403.600	-18.799	0.100
403.700	-20.552	0.100
403.800	-8.086	0.100
403.900	-10.870	0.100
404.000	-17.248	0.100
404.100	-7.244	0.100
404.200	-10.058	0.100
404.300	-12.762	0.100
404.400	-6.964	0.100
404.500	-28.969	0.100
404.600	-7.914	0.100
404.700	-11.466	0.100
404.800	-3.264	0.100
404.900	-22.315	0.100
405.000	-13.648	0.100
405.100	-7.103	0.100
405.200	-13.166	0.100
405.300	-2.472	0.100
405.400	-20.223	0.100
405.500	-6.290	0.100
405.600	-7.374	0.100
405.700	-14.163	0.100
405.800	-7.366	0.100
405.900	-10.599	0.100
406.000	-1.423	0.100
406.100	-6.921	0.100
406.200	-16.895	0.100
406.300	-17.549	0.100
406.400	-12.205	0.100
406.500	-15.828	0.100
406.600	-5.644	0.100
406.700	-11.298	0.100
406.800	-5.391	0.100
406.900	-15.346	0.100
407.000	-8.082	0.100
407.100	-14.303	0.100
407.200	-12.122	0.100
407.300	-14.851	0.100
407.400	-16.187	0.100
407.500	-22.056	0.100
407.600	-10.971	0.100
407.700	-8.940	0.100
407.800	-24.224	0.100
407.900	2.652	0.100
408.000	-13.568	0.100
408.100	-12.281	0.100
408.200	-21.486	0.100
408.300	-7.790	0.100
408.400	-16.801	0.100
408.500	-27.182	0.100
408.600	-27.212	0.100
408.700	-19.474	0.100
408.800	0.983	0.100
408.900	8.952	0.100
409.000	-17.124	0.100
409.100	-4.229	0.100
409.200	-26.675	0.100
409.300	-25.773	0.100
409.400	-8.182	0.100
409.500	-12.074	0.100
409.600	-37.055	0.100
409.700	-11.129	0.100
409.800	-1.486	0.100
409.900	-10.552	0.100
410.000	-18.379	0.100
410.100	-18.083	0.100
410.200	-18.839	0.100
410.300	-11.501	0.100
410.400	-23.940	0.100
410.500	-30.365	0.100
410.600	-6.245	0.100
410.700	-3.886	0.100
410.800	-12.402	0.100
410.900	-9.296	0.100
411.000	-18.111	0.100
411.100	-26.104	0.100
411.200	-27.296	0.100
411.300	2.194	0.100
411.400	-9.633	0.100
411.500	-25.934	0.100
411.600	-14.879	0.100
411.700	-9.805	0.100
411.800	-22.707	0.100
411.900	-22.723	0.100
412.000	-11.521	0.100
412.100	-11.523	0.100
412.200	-5.613	0.100
412.300	-22.652	0.100
412.400	-7.181	0.100
412.500	-26.880	0.100
412.600	-5.449	0.100
412.700	-21.850	0.100
412.800	-30.428	0.100
412.900	-24.169	0.100
413.000	-17.829	0.100
413.100	-6.376	0.100
413.200	-7.247	0.100
413.300	-11.484	0.100
413.400	-22.633	0.100
413.500	-19.538	0.100
413.600	-1.477	0.100
413.700	-23.915	0.100
413.800	-15.648	0.100
413.900	-2.244	0.100
414.000	-19.935	0.100
414.100	-9.503	0.100
414.200	-24.484	0.100
414.300	-7.554	0.100
414.400	-16.590	0.100
414.500	-25.098	0.100
414.600	-18.608	0.100
414.700	-11.003	0.100
414.800	-26.871	0.100
414.900	-21.828	0.100
415.000	-0.702	0.100
415.100	-11.941	0.100
415.200	-36.605	0.100
415.300	-14.376	0.100
415.400	-23.732	0.100
415.500	-6.252	0.100
415.600	-22.520	0.100
415.700	-14.828	0.100
415.800	-2.329	0.100
415.900	-2.575	0.100
416.000	-29.743	0.100
416.100	-19.989	0.100
416.200	-14.521	0.100
416.300	-6.108	0.100
416.400	-30.981	0.100
416.500	-11.946	0.100
416.600	-15.856	0.100
416.700	-16.781	0.100
416.800	-18.064	0.100
416.900	-28.790	0.100
417.000	-15.570	0.100
417.100	-10.574	0.100
417.200	-13.116	0.100
417.300	-10.824	0.100
417.400	-38.775	0.100
417.500	-16.048	0.100
417.600	-6.296	0.100
417.700	-7.711	0.100
417.800	-12.134	0.100
417.900	-21.238	0.100
418.000	-14.086	0.100
418.100	-12.797	0.100
418.200	-9.153	0.100
418.300	-12.935	0.100
418.400	-23.798	0.100
418.500	-11.935	0.100
418.600	-15.808	0.100
418.700	-8.875	0.100
418.800	-24.881	0.100
418.900	-9.597	0.100
419.000	-4.395	0.100
419.100	-11.100	0.100
419.200	-2.537	0.100
419.300	-18.088	0.100
419.400	-23.319	0.100
419.500	-14.138	0.100
419.600	-3.490	0.100
419.700	-34.164	0.100
419.800	-0.659	0.100
419.900	-10.770	0.100
420.000	-22.863	0.100
420.100	-11.804	0.100
420.200	-13.235	0.100
420.300	-25.037	0.100
420.400	-20.771	0.100
420.500	-14.915	0.100
420.600	-6.653	0.100
420.700	-14.053	0.100
420.800	-9.265	0.100
420.900	-18.625	0.100
421.000	-4.582	0.101
421.100	7.071	0.100
421.200	-19.225	0.100
421.300	-3.480	0.100
421.400	-23.847	0.100
421.500	-21.841	0.100
421.600	-11.663	0.100
421.700	-18.486	0.100
421.800	-10.871	0.100
421.900	-32.171	0.100
422.000	-22.202	0.100
422.100	-4.457	0.100
422.200	-12.812	0.100
422.300	2.729	0.100
422.400	-28.339	0.100
422.500	-27.199	0.100
422.600	-0.818	0.100
422.700	-2.044	0.100
422.800	-34.685	0.100
422.900	-22.991	0.100
423.000	-5.987	0.100
423.100	-8.366	0.100
423.200	-14.357	0.100
423.300	-8.634	0.100
423.400	-4.345	0.100
423.500	-21.464	0.100
423.600	-4.726	0.100
423.700	-21.384	0.100
423.800	-10.790	0.100
423.900	-16.579	0.100
424.000	-20.465	0.100
424.100	-18.744	0.100
424.200	-17.182	0.100
424.300	-25.687	0.100
424.400	-17.764	0.100
424.500	-3.807	0.100
424.600	-25.410	0.100
424.700	-14.867	0.100
424.800	-10.307	0.100
424.900	-15.444	0.100
425.000	-21.722	0.100
425.100	4.381	0.100
425.200	-11.969	0.100
425.300	-9.997	0.100
425.400	-19.666	0.100
425.500	-15.791	0.100
425.600	-15.826	0.101
425.700	-16.380	0.100
425.800	-1.403	0.100
425.900	-12.700	0.100
426.000	-23.105	0.100
426.100	-13.464	0.100
426.200	-11.190	0.100
426.300	-13.666	0.100
426.400	-13.486	0.100
426.500	-6.024	0.100
426.600	-17.141	0.100
426.700	-17.929	0.100
426.800	-13.184	0.100
426.900	-10.033	0.100
427.000	3.609	0.100
427.100	-35.439	0.100
427.200	-1.665	0.100
427.300	-21.443	0.100
427.400	-5.549	0.100
427.500	-8.088	0.100
427.600	-6.418	0.100
427.700	-17.924	0.100
427.800	-12.828	0.100
427.900	-8.871	0.101
428.000	-19.300	0.100
428.100	-3.157	0.100
428.200	-8.603	0.100
428.300	-0.500	0.100
428.400	-10.035	0.100
428.500	-18.571	0.100
428.600	-7.002	0.100
428.700	-15.150	0.100
428.800	-13.216	0.100
428.900	-18.350	0.100
429.000	-29.252	0.100
429.100	-10.141	0.100
429.200	-7.731	0.100
429.300	-10.737	0.100
429.400	-16.610	0.100
429.500	-11.485	0.100
429.600	-11.696	0.100
429.700	-14.018	0.100
429.800	-9.126	0.101
429.900	-18.037	0.100
430.000	-15.714	0.100
430.100	-17.735	0.100
430.200	-15.197	0.100
430.300	-11.149	0.101
430.400	-6.428	0.100
430.500	-13.013	0.101
430.600	-4.893	0.100
430.700	-23.016	0.101
430.800	-17.141	0.101
430.900	-27.349	0.101
431.000	-12.001	0.100
431.100	-5.153	0.100
431.200	-16.123	0.101
431.300	-12.817	0.100
431.400	-9.703	0.100
431.500	-3.419	0.101
431.600	-22.295	0.100
431.700	-7.318	0.100
431.800	-17.190	0.100
431.900	-5.756	0.101
432.000	-13.299	0.100
432.100	-12.536	0.100
432.200	-1.387	0.100
432.300	-33.595	0.100
432.400	-4.393	0.100
432.500	-13.919	0.100
432.600	-17.292	0.100
432.700	-9.192	0.100
432.800	-17.573	0.100
432.900	-3.553	0.101
433.000	-14.297	0.100
433.100	-12.762	0.101
433.200	-21.439	0.100
433.300	-22.573	0.100
433.400	-21.247	0.100
433.500	6.933	0.100
433.600	-33.653	0.100
433.700	-5.146	0.101
433.800	-7.158	0.100
433.900	-16.563	0.100
434.000	-12.198	0.101
434.100	-10.176	0.101
434.200	-17.244	0.100
434.300	-12.143	0.100
434.400	-12.847	0.100
434.500	-21.112	0.100
434.600	3.887	0.101
434.700	-4.151	0.100
434.800	-1.157	0.100
434.900	-11.353	0.101
435.000	-2.504	0.100
435.100	-6.851	0.100
435.200	-16.648	0.101
435.300	4.352	0.100
435.400	-22.226	0.101
435.500	-7.952	0.100
435.600	-7.210	0.101
435.700	-3.765	0.100
435.800	-12.147	0.100
435.900	-23.649	0.101
436.000	-6.493	0.101
436.100	-9.969	0.101
436.200	-18.358	0.101
436.300	-8.840	0.101
436.400	-17.134	0.101
436.500	-17.730	0.101
436.600	1.090	0.101
436.700	-11.584	0.101
436.800	-11.949	0.101
436.900	-9.921	0.101
437.000	-23.785	0.101
437.100	-17.908	0.101
437.200	-6.238	0.101
437.300	-17.497	0.101
437.400	-15.649	0.101
437.500	-15.854	0.101
437.600	-12.287	0.101
437.700	-17.579	0.101
437.800	-16.751	0.101
437.900	-4.211	0.101
438.000	-15.057	0.101
438.100	-4.151	0.101
438.200	-15.093	0.101
438.300	-11.021	0.101
438.400	-15.189	0.101
438.500	-19.734	0.101
438.600	-4.290	0.101
438.700	-8.822	0.101
438.800	-9.720	0.101
438.900	-17.768	0.101
439.000	-7.061	0.101
439.100	-21.856	0.101
439.200	-4.872	0.101
439.300	-12.279	0.101
439.400	-6.009	0.101
439.500	-21.747	0.101
439.600	-12.766	0.101
439.700	-8.085	0.101
439.800	-9.916	0.101
439.900	-8.017	0.101
440.000	-32.064	0.101
440.100	-21.669	0.101
440.200	-7.793	0.101
440.300	-20.689	0.101
440.400	-23.058	0.101
440.500	-3.511	0.101
440.600	3.800	0.101
440.700	-7.696	0.101
440.800	-12.274	0.101
440.900	-22.625	0.101
441.000	-21.825	0.101
441.100	-18.952	0.101
441.200	-8.718	0.101
441.300	-10.098	0.101
441.400	-23.288	0.101
441.500	-18.502	0.101
441.600	-0.515	0.101
441.700	-8.780	0.101
441.800	-5.777	0.101
441.900	-14.341	0.101
442.000	-14.905	0.101
442.100	-0.555	0.101
442.200	-12.814	0.101
442.300	-7.759	0.101
442.400	-15.448	0.101
442.500	-11.441	0.101
442.600	-26.673	0.101
442.700	1.955	0.101
442.800	2.352	0.101
442.900	-18.301	0.101
443.000	1.175	0.101
443.100	-8.094	0.101
443.200	-10.773	0.101
443.300	-23.418	0.101
443.400	-12.898	0.101
443.500	-13.923	0.101
443.600	-15.021	0.101
443.700	-13.508	0.101
443.800	-25.979	0.101
443.900	-2.408	0.101
444.000	-23.377	0.101
444.100	-16.029	0.101
444.200	-10.253	0.101
444.300	-19.154	0.101
444.400	-5.903	0.101
444.500	-11.838	0.101
444.600	-10.457	0.101
444.700	-7.679	0.101
444.800	-23.086	0.101
444.900	-10.203	0.101
445.000	-0.659	0.101
445.100	-7.420	0.101
445.200	6.832	0.101
445.300	-14.086	0.101
445.400	-16.925	0.101
445.500	-19.163	0.101
445.600	-6.136	0.101
445.700	-12.020	0.101
445.800	-13.310	0.101
445.900	-5.437	0.101
446.000	-15.923	0.101
446.100	-14.849	0.101
446.200	-11.795	0.101
446.300	-9.741	0.101
446.400	-13.537	0.101
446.500	-13.206	0.101
446.600	-11.939	0.101
446.700	-13.255	0.101
446.800	-2.080	0.101
446.900	-28.702	0.101
447.000	-11.238	0.101
447.100	-11.420	0.101
447.200	-33.744	0.101
447.300	-5.334	0.101
447.400	-14.048	0.101
447.500	-12.360	0.101
447.600	-22.562	0.101
447.700	7.433	0.101
447.800	-0.983	0.101
447.900	5.396	0.101
448.000	-3.483	0.101
448.100	-24.976	0.101
448.200	-5.978	0.101
448.300	-6.920	0.101
448.400	-26.404	0.101
448.500	-12.445	0.101
448.600	-21.728	0.101
448.700	-7.034	0.101
448.800	-20.067	0.101
448.900	-22.544	0.101
449.000	-22.746	0.101
449.100	-3.990	0.101
449.200	-15.309	0.101
449.300	-19.753	0.101
449.400	0.630	0.101
449.500	-4.539	0.101
449.600	-2.752	0.101
449.700	-16.445	0.101
449.800	-13.542	0.101
449.900	-6.553	0.101
450.000	0.172	0.101
450.100	-4.978	0.101
450.200	-16.591	0.101
450.300	-13.743	0.101
450.400	-9.960	0.101
450.500	-13.466	0.101
450.600	-26.617	0.101
450.700	-15.409	0.101
450.800	0.773	0.101
450.900	-10.728	0.101
451.000	-7.155	0.101
451.100	-12.944	0.101
451.200	-3.747	0.101
451.300	-19.638	0.101
451.400	-11.877	0.101
451.500	-11.064	0.101
451.600	0.466	0.101
451.700	-5.162	0.101
451.800	-7.262	0.101
451.900	-14.091	0.101
452.000	-27.554	0.101
452.100	-9.905	0.101
452.200	-0.558	0.101
452.300	-20.186	0.101
452.400	-14.140	0.101
452.500	-14.547	0.101
452.600	-14.402	0.101
452.700	-11.188	0.101
452.800	-12.573	0.101
452.900	-2.056	0.101
453.000	-10.857	0.101
453.100	-3.116	0.101
453.200	-3.751	0.101
453.300	-22.570	0.101
453.400	-13.541	0.101
453.500	-12.266	0.101
453.600	-21.455	0.101
453.700	-12.491	0.101
453.800	-7.383	0.101
453.900	-6.883	0.101
454.000	-9.718	0.101
454.100	-9.524	0.101
454.200	-15.276	0.101
454.300	-4.563	0.101
454.400	-1.009	0.101
454.500	-12.591	0.101
454.600	-13.358	0.101
454.700	-11.563	0.101
454.800	-8.962	0.101
454.900	-14.092	0.101
455.000	-19.851	0.101
455.100	-12.255	0.101
455.200	-10.209	0.101
455.300	-1.985	0.101
455.400	-11.003	0.101
455.500	-5.212	0.101
455.600	-4.934	0.101
455.700	-6.334	0.101
455.800	-21.846	0.101
455.900	-1.462	0.101
456.000	-20.801	0.101
456.100	-5.733	0.101
456.200	-22.631	0.101
456.300	-16.168	0.101
456.400	-13.573	0.101
456.500	-10.268	0.101
456.600	-7.928	0.101
456.700	-15.211	0.101
456.800	1.000	0.101
456.900	2.287	0.101
457.000	-18.844	0.101
457.100	-10.609	0.101
457.200	-17.342	0.101
457.300	-5.360	0.101
457.400	-13.038	0.101
457.500	-9.495	0.101
457.600	-20.249	0.101
457.700	-9.165	0.101
457.800	-2.758	0.101
457.900	-7.939	0.101
458.000	2.353	0.101
458.100	-15.245	0.101
458.200	-17.454	0.101
458.300	-0.298	0.101
458.400	-28.055	0.101
458.500	-3.263	0.101
458.600	-5.994	0.101
458.700	-15.057	0.101
458.800	-10.032	0.101
458.900	-19.937	0.101
459.000	-6.887	0.101
459.100	-9.788	0.101
459.200	5.132	0.101
459.300	-20.785	0.101
459.400	-13.602	0.101
459.500	-11.087	0.101
459.600	-9.281	0.101
459.700	-1.053	0.101
459.800	0.046	0.101
459.900	-6.077	0.101
460.000	-4.796	0.101
460.100	-3.130	0.101
460.200	-12.773	0.101
460.300	-19.567	0.101
460.400	-4.572	0.101
460.500	-9.902	0.101
460.600	-5.316	0.101
460.700	-24.131	0.101
460.800	-5.317	0.101
460.900	-15.011	0.101
461.000	-4.344	0.101
461.100	-24.978	0.101
461.200	-10.724	0.101
461.300	-14.827	0.101
461.400	-13.019	0.101
461.500	-20.461	0.101
461.600	-4.979	0.101
461.700	-14.605	0.101
461.800	-7.120	0.101
461.900	-10.009	0.101
462.000	-18.570	0.101
462.100	-12.859	0.101
462.200	-13.897	0.101
462.300	-10.423	0.101
462.400	-13.649	0.101
462.500	-22.043	0.101
462.600	-5.842	0.101
462.700	-8.720	0.101
462.800	-19.826	0.101
462.900	-18.571	0.101
463.000	8.840	0.101
463.100	-7.413	0.101
463.200	-14.896	0.101
463.300	-8.506	0.101
463.400	-22.000	0.101
463.500	-2.277	0.101
463.600	-5.855	0.101
463.700	-16.658	0.101
463.800	-8.985	0.101
463.900	-17.627	0.101
464.000	-15.504	0.101
464.100	0.923	0.101
464.200	-14.308	0.101
464.300	-15.037	0.101
464.400	-16.506	0.101
464.500	-21.266	0.101
464.600	-5.401	0.101
464.700	-19.681	0.101
464.800	-23.866	0.101
464.900	-4.854	0.101
465.000	3.227	0.101
465.100	-7.134	0.101
465.200	-3.036	0.101
465.300	-12.594	0.101
465.400	-6.945	0.101
465.500	-14.348	0.101
465.600	-13.197	0.101
465.700	-4.958	0.101
465.800	-18.161	0.101
465.900	1.986	0.101
466.000	-12.768	0.101
466.100	-8.939	0.101
466.200	-14.949	0.101
466.300	-23.958	0.101
466.400	-6.112	0.101
466.500	0.103	0.101
466.600	-4.162	0.101
466.700	-10.527	0.101
466.800	-7.913	0.101
466.900	-20.874	0.101
467.000	-11.438	0.101
467.100	-0.891	0.101
467.200	-6.689	0.101
467.300	-12.895	0.101
467.400	-15.217	0.101
467.500	-7.549	0.101
467.600	-18.795	0.101
467.700	4.752	0.101
467.800	-23.911	0.101
467.900	-18.466	0.101
468.000	-5.897	0.101
468.100	1.704	0.101
468.200	-9.880	0.101
468.300	-14.844	0.101
468.400	-8.808	0.101
468.500	-10.084	0.101
468.600	-4.115	0.101
468.700	-12.100	0.101
468.800	-11.908	0.101
468.900	-6.754	0.101
469.000	-10.413	0.101
469.100	-19.040	0.101
469.200	-3.948	0.101
469.300	-10.745	0.101
469.400	-18.378	0.101
469.500	-14.645	0.101
469.600	-7.557	0.101
469.700	-2.563	0.101
469.800	-9.955	0.101
469.900	-19.485	0.101
470.000	-8.764	0.101
470.100	-4.918	0.101
470.200	-17.973	0.101
470.300	-3.379	0.101
470.400	-23.701	0.101
470.500	-13.539	0.101
470.600	-0.747	0.101
470.700	-14.559	0.101
470.800	-13.385	0.101
470.900	-18.856	0.101
471.000	-15.088	0.101
471.100	-7.720	0.101
471.200	-6.552	0.101
471.300	-12.157	0.101
471.400	-8.326	0.101
471.500	-9.772	0.101
471.600	-13.065	0.101
471.700	-18.898	0.101
471.800	-13.297	0.101
471.900	-6.730	0.101
472.000	-19.043	0.101
472.100	7.589	0.101
472.200	-10.528	0.101
472.300	-3.398	0.101
472.400	-19.059	0.101
472.500	-19.743	0.101
472.600	-12.232	0.101
472.700	-8.568	0.101
472.800	-17.618	0.101
472.900	-12.515	0.101
473.000	-14.416	0.101
473.100	-10.011	0.101
473.200	-11.191	0.101
473.300	-10.533	0.101
473.400	10.748	0.101
473.500	-10.963	0.101
473.600	-4.218	0.101
473.700	-20.147	0.101
473.800	-7.441	0.101
473.900	-19.213	0.101
474.000	-18.785	0.101
474.100	-5.863	0.101
474.200	-15.696	0.101
474.300	-10.675	0.101
474.400	-18.358	0.101
474.500	-12.940	0.101
474.600	-5.911	0.101
474.700	-11.866	0.101
474.800	-18.599	0.101
474.900	-18.479	0.101
475.000	-4.934	0.101
475.100	-9.538	0.101
475.200	-9.724	0.101
475.300	4.619	0.101
475.400	1.756	0.101
475.500	-9.120	0.101
475.600	-25.774	0.101
475.700	-17.449	0.101
475.800	-2.461	0.101
475.900	-20.923	0.101
476.000	-14.699	0.101
476.100	-5.333	0.101
476.200	-6.229	0.101
476.300	-11.031	0.101
476.400	-16.555	0.101
476.500	0.046	0.101
476.600	-11.202	0.101
476.700	-26.212	0.101
476.800	6.820	0.101
476.900	-8.892	0.101
477.000	-8.068	0.101
477.100	-17.304	0.101
477.200	-0.447	0.101
477.300	-20.321	0.101
477.400	-11.916	0.101
477.500	-7.809	0.101
477.600	-7.877	0.101
477.700	-19.175	0.101
477.800	0.960	0.101
477.900	-11.048	0.101
478.000	-8.675	0.101
478.100	-22.318	0.101
478.200	-16.603	0.101
478.300	-10.500	0.101
478.400	-16.423	0.101
478.500	-11.604	0.101
478.600	-6.196	0.101
478.700	-38.674	0.101
478.800	-2.326	0.101
478.900	-11.670	0.101
479.000	-3.367	0.101
479.100	-14.551	0.101
479.200	-13.169	0.101
479.300	-19.543	0.101
479.400	-5.443	0.101
479.500	-7.908	0.101
479.600	-10.076	0.101
479.700	-15.458	0.101
479.800	-14.253	0.101
479.900	-6.486	0.101
480.000	-11.157	0.101
480.100	-19.327	0.101
480.200	-5.775	0.101
480.300	0.508	0.101
480.400	-7.177	0.101
480.500	-11.236	0.101
480.600	-6.663	0.101
480.700	-0.780	0.101
480.800	-12.170	0.101
480.900	-7.805	0.101
481.000	11.860	0.101
481.100	-7.884	0.101
481.200	5.290	0.101
481.300	-1.506	0.101
481.400	6.764	0.101
481.500	-1.231	0.101
481.600	-6.546	0.101
481.700	4.018	0.101
481.800	6.248	0.101
481.900	1.340	0.101
482.000	-0.520	0.101
482.100	9.336	0.101
482.200	2.181	0.101
482.300	23.182	0.101
482.400	2.550	0.101
482.500	14.654	0.101
482.600	-0.418	0.101
482.700	0.992	0.101
482.800	7.696	0.101
482.900	13.785	0.101
483.000	19.596	0.101
483.100	0.640	0.101
483.200	4.350	0.101
483.300	16.966	0.101
483.400	5.020	0.101
483.500	-1.018	0.101
483.600	8.054	0.101
483.700	7.308	0.101
483.800	-1.193	0.101
483.900	26.014	0.101
484.000	-1.605	0.101
484.100	11.985	0.101
484.200	13.644	0.101
484.300	5.912	0.101
484.400	5.187	0.101
484.500	0.126	0.101
484.600	15.590	0.101
484.700	11.051	0.101
484.800	-17.124	0.101
484.900	1.766	0.101
485.000	10.930	0.101
485.100	10.586	0.101
485.200	8.209	0.101
485.300	13.919	0.101
485.400	7.038	0.101
485.500	-4.218	0.101
485.600	14.933	0.101
485.700	0.083	0.101
485.800	9.913	0.101
485.900	4.231	0.101
486.000	13.643	0.101
486.100	1.579	0.101
486.200	22.297	0.101
486.300	2.988	0.101
486.400	-4.229	0.101
486.500	15.280	0.101
486.600	7.474	0.101
486.700	7.673	0.101
486.800	14.570	0.101
486.900	13.192	0.101
487.000	11.111	0.101
487.100	9.500	0.101
487.200	11.405	0.101
487.300	16.969	0.101
487.400	11.489	0.101
487.500	-3.153	0.101
487.600	6.356	0.101
487.700	3.243	0.101
487.800	10.122	0.101
487.900	9.576	0.101
488.000	-1.096	0.101
488.100	6.461	0.101
488.200	7.631	0.101
488.300	16.171	0.101
488.400	6.917	0.101
488.500	7.613	0.101
488.600	20.198	0.101
488.700	21.185	0.101
488.800	-7.934	0.101
488.900	3.794	0.101
489.000	12.266	0.101
489.100	18.959	0.101
489.200	14.533	0.101
489.300	2.822	0.101
489.400	3.648	0.101
489.500	-4.901	0.101
489.600	27.468	0.101
489.700	-2.063	0.101
489.800	7.032	0.101
489.900	10.470	0.101
490.000	10.270	0.101
490.100	6.974	0.101
490.200	15.345	0.101
490.300	2.412	0.101
490.400	18.239	0.101
490.500	2.909	0.101
490.600	-8.704	0.101
490.700	13.739	0.101
490.800	13.635	0.101
490.900	7.069	0.101
491.000	24.657	0.101
491.100	5.415	0.101
491.200	6.502	0.101
491.300	20.174	0.101
491.400	30.593	0.101
491.500	-6.890	0.101
491.600	21.144	0.101
491.700	11.661	0.101
491.800	14.690	0.101
491.900	7.473	0.101
492.000	7.080	0.101
492.100	12.953	0.101
492.200	24.908	0.101
492.300	20.633	0.101
492.400	8.379	0.101
492.500	-0.471	0.101
492.600	23.841	0.101
492.700	16.012	0.101
492.800	7.539	0.101
492.900	4.667	0.101
493.000	32.955	0.101
493.100	5.037	0.101
493.200	7.398	0.101
493.300	2.507	0.101
493.400	9.671	0.101
493.500	-3.784	0.101
493.600	19.774	0.101
493.700	11.349	0.101
493.800	15.106	0.101
493.900	5.932	0.100
494.000	22.659	0.101
494.100	10.795	0.101
494.200	13.854	0.101
494.300	19.883	0.101
494.400	5.499	0.101
494.500	17.736	0.100
494.600	11.558	0.101
494.700	15.210	0.101
494.800	11.438	0.100
494.900	16.948	0.100
495.000	8.858	0.100
495.100	24.495	0.100
495.200	6.504	0.100
495.300	18.533	0.100
495.400	18.735	0.100
495.500	26.488	0.100
495.600	25.990	0.100
495.700	8.302	0.100
495.800	20.125	0.100
495.900	19.136	0.100
496.000	12.943	0.100
496.100	13.254	0.100
496.200	10.295	0.100
496.300	38.521	0.100
496.400	20.441	0.100
496.500	21.920	0.100
496.600	6.490	0.100
496.700	19.239	0.100
496.800	30.130	0.100
496.900	16.954	0.100
497.000	24.655	0.100
497.100	-0.629	0.100
497.200	10.767	0.100
497.300	34.899	0.100
497.400	18.640	0.100
497.500	15.578	0.100
497.600	25.489	0.100
497.700	21.910	0.100
497.800	12.093	0.100
497.900	22.182	0.100
498.000	7.492	0.100
498.100	21.875	0.100
498.200	11.701	0.100
498.300	2.321	0.100
498.400	15.374	0.100
498.500	37.473	0.100
498.600	27.423	0.100
498.700	12.356	0.100
498.800	29.307	0.100
498.900	18.040	0.100
499.000	9.429	0.100
499.100	14.996	0.100
499.200	13.958	0.100
499.300	19.286	0.100
499.400	14.456	0.100
499.500	28.558	0.100
499.600	38.824	0.100
499.700	21.976	0.100
499.800	2.557	0.100
499.900	19.394	0.100
500.000	19.043	0.100
500.100	15.591	0.100
500.200	31.955	0.100
500.300	12.908	0.100
500.400	26.505	0.100
500.500	15.456	0.100
500.600	5.404	0.100
500.700	18.734	0.100
500.800	11.559	0.100
500.900	25.402	0.100
501.000	25.312	0.100
501.100	25.047	0.100
501.200	2.869	0.100
501.300	21.657	0.100
501.400	13.808	0.100
501.500	17.974	0.100
501.600	15.992	0.100
501.700	17.602	0.100
501.800	10.967	0.100
501.900	31.217	0.100
502.000	18.000	0.100
502.100	18.729	0.100
502.200	25.681	0.100
502.300	21.737	0.100
502.400	18.876	0.100
502.500	24.465	0.100
502.600	5.187	0.100
502.700	32.630	0.100
502.800	10.281	0.100
502.900	21.723	0.100
503.000	29.595	0.100
503.100	22.984	0.100
503.200	19.854	0.100
503.300	29.322	0.100
503.400	26.993	0.100
503.500	22.872	0.100
503.600	18.966	0.100
503.700	26.012	0.100
503.800	25.688	0.100
503.900	26.482	0.100
504.000	15.514	0.100
504.100	33.367	0.100
504.200	18.869	0.100
504.300	13.679	0.100
504.400	23.574	0.100
504.500	26.266	0.100
504.600	23.364	0.100
504.700	25.904	0.100
504.800	22.242	0.100
504.900	24.878	0.100
505.000	25.254	0.100
505.100	20.371	0.100
505.200	16.898	0.100
505.300	21.869	0.100
505.400	16.147	0.100
505.500	26.232	0.100
505.600	31.761	0.100
505.700	9.734	0.100
505.800	31.293	0.100
505.900	23.107	0.100
506.000	20.739	0.100
506.100	11.692	0.100
506.200	18.875	0.100
506.300	22.383	0.100
506.400	17.918	0.100
506.500	12.302	0.100
506.600	27.566	0.100
506.700	30.193	0.100
506.800	29.408	0.100
506.900	19.693	0.100
507.000	23.471	0.100
507.100	17.235	0.100
507.200	28.070	0.100
507.300	20.922	0.100
507.400	25.700	0.100
507.500	16.765	0.100
507.600	15.204	0.100
507.700	20.702	0.100
507.800	28.877	0.100
507.900	35.828	0.100
508.000	27.539	0.100
508.100	20.189	0.100
508.200	13.963	0.100
508.300	25.011	0.100
508.400	34.186	0.100
508.500	27.425	0.100
508.600	17.545	0.100
508.700	11.106	0.100
508.800	37.525	0.100
508.900	32.386	0.100
509.000	36.548	0.100
509.100	13.033	0.100
509.200	33.016	0.100
509.300	3.567	0.100
509.400	30.051	0.100
509.500	32.934	0.100
509.600	25.554	0.100
509.700	22.255	0.100
509.800	19.626	0.100
509.900	15.847	0.100
510.000	31.867	0.100
510.100	29.957	0.100
510.200	22.858	0.100
510.300	21.571	0.100
510.400	33.787	0.100
510.500	4.615	0.100
510.600	27.915	0.100
510.700	39.629	0.100
510.800	23.884	0.100
510.900	39.210	0.100
511.000	28.705	0.100
511.100	25.327	0.100
511.200	17.629	0.100
511.300	26.976	0.100
511.400	17.842	0.100
511.500	28.640	0.100
511.600	21.558	0.100
511.700	26.429	0.100
511.800	29.535	0.100
511.900	23.817	0.100
512.000	18.534	0.100
512.100	26.529	0.100
512.200	18.265	0.100
512.300	20.972	0.100
512.400	31.785	0.100
512.500	30.316	0.100
512.600	33.784	0.100
512.700	32.230	0.100
512.800	10.464	0.100
512.900	29.574	0.100
513.000	42.012	0.100
513.100	16.314	0.100
513.200	21.095	0.100
513.300	26.566	0.100
513.400	30.667	0.100
513.500	23.714	0.100
513.600	18.848	0.100
513.700	32.857	0.100
513.800	28.895	0.100
513.900	30.099	0.100
514.000	27.747	0.100
514.100	31.255	0.100
514.200	9.818	0.100
514.300	37.663	0.100
514.400	32.556	0.100
514.500	14.246	0.100
514.600	32.950	0.100
514.700	19.660	0.100
514.800	26.456	0.100
514.900	23.742	0.100
515.000	25.847	0.100
515.100	24.296	0.100
515.200	28.937	0.100
515.300	15.418	0.100
515.400	24.440	0.100
515.500	10.096	0.100
515.600	24.831	0.100
515.700	28.109	0.100
515.800	28.614	0.100
515.900	23.178	0.100
516.000	20.393	0.100
516.100	40.203	0.100
516.200	28.299	0.100
516.300	18.830	0.100
516.400	27.840	0.100
516.500	39.281	0.100
516.600	15.529	0.100
516.700	18.643	0.100
516.800	27.614	0.100
516.900	26.856	0.100
517.000	20.889	0.100
517.100	28.558	0.100
517.200	25.012	0.100
517.300	39.445	0.100
517.400	21.651	0.100
517.500	23.966	0.100
517.600	13.389	0.100
517.700	15.560	0.100
517.800	26.171	0.100
517.900	36.020	0.101
518.000	19.258	0.100
518.100	19.648	0.101
518.200	25.065	0.100
518.300	27.752	0.100
518.400	31.529	0.101
518.500	16.573	0.101
518.600	25.579	0.101
518.700	28.939	0.101
518.800	30.057	0.101
518.900	32.196	0.101
519.000	37.100	0.101
519.100	17.840	0.101
519.200	40.374	0.101
519.300	25.132	0.101
519.400	29.218	0.101
519.500	22.299	0.100
519.600	30.858	0.100
519.700	35.333	0.100
519.800	27.954	0.100
519.900	27.081	0.100
520.000	23.803	0.100
520.100	23.988	0.100
520.200	37.696	0.100
520.300	26.049	0.100
520.400	19.051	0.101
520.500	35.867	0.100
520.600	37.291	0.100
520.700	26.995	0.100
520.800	26.138	0.100
520.900	24.244	0.100
521.000	21.081	0.100
521.100	26.305	0.101
521.200	23.954	0.101
521.300	36.595	0.100
521.400	31.061	0.100
521.500	15.302	0.100
521.600	26.449	0.100
521.700	26.011	0.100
521.800	23.684	0.100
521.900	36.389	0.100
522.000	20.284	0.100
522.100	11.622	0.100
522.200	36.434	0.100
522.300	33.450	0.100
522.400	27.493	0.100
522.500	19.472	0.100
522.600	20.435	0.100
522.700	36.990	0.100
522.800	24.857	0.100
522.900	22.530	0.100
523.000	26.867	0.100
523.100	6.680	0.101
523.200	37.110	0.100
523.300	35.028	0.100
523.400	36.364	0.101
523.500	35.252	0.100
523.600	22.790	0.100
523.700	26.224	0.100
523.800	29.459	0.100
523.900	32.786	0.100
524.000	11.956	0.100
524.100	28.593	0.100
524.200	33.790	0.100
524.300	38.967	0.100
524.400	17.702	0.100
524.500	25.894	0.100
524.600	34.512	0.100
524.700	31.191	0.100
524.800	33.701	0.100
524.900	25.559	0.100
525.000	22.588	0.100
525.100	25.485	0.100
525.200	28.937	0.100
525.300	30.575	0.100
525.400	23.921	0.100
525.500	34.563	0.100
525.600	23.274	0.100
525.700	20.257	0.100
525.800	30.150	0.100
525.900	25.626	0.100
526.000	27.975	0.100
526.100	35.772	0.100
526.200	30.609	0.100
526.300	32.398	0.100
526.400	36.868	0.100
526.500	24.935	0.100
526.600	43.560	0.100
526.700	21.287	0.100
526.800	31.484	0.100
526.900	32.000	0.100
527.000	26.776	0.100
527.100	24.570	0.101
527.200	31.445	0.100
527.300	31.283	0.100
527.400	19.230	0.100
527.500	37.358	0.100
527.600	32.827	0.100
527.700	25.593	0.100
527.800	14.705	0.100
527.900	4.562	0.100
528.000	29.634	0.100
528.100	32.483	0.100
528.200	33.057	0.100
528.300	19.658	0.100
528.400	34.350	0.100
528.500	37.168	0.100
528.600	46.266	0.100
528.700	22.804	0.100
528.800	32.720	0.100
528.900	25.427	0.100
529.000	26.824	0.100
529.100	22.766	0.100
529.200	35.546	0.101
529.300	31.955	0.100
529.400	44.578	0.100
529.500	27.541	0.100
529.600	23.448	0.101
529.700	26.258	0.100
529.800	35.547	0.100
529.900	26.957	0.100
530.000	26.029	0.100
530.100	37.611	0.100
530.200	28.406	0.100
530.300	29.562	0.100
530.400	20.756	0.100
530.500	24.130	0.100
530.600	26.582	0.100
530.700	34.483	0.100
530.800	26.567	0.100
530.900	32.036	0.100
531.000	3.822	0.100
531.100	27.955	0.100
531.200	8.658	0.100
531.300	31.725	0.100
531.400	35.117	0.100
531.500	29.927	0.100
531.600	31.358	0.100
531.700	35.502	0.100
531.800	19.613	0.101
531.900	29.673	0.100
532.000	22.887	0.101
532.100	27.545	0.100
532.200	34.982	0.100
532.300	22.851	0.100
532.400	27.898	0.100
532.500	36.724	0.100
532.600	27.969	0.100
532.700	23.526	0.101
532.800	27.131	0.100
532.900	38.338	0.100
533.000	26.949	0.100
533.100	31.458	0.100
533.200	31.614	0.100
533.300	23.673	0.100
533.400	31.416	0.100
533.500	23.637	0.100
533.600	30.675	0.100
533.700	26.788	0.100
533.800	17.364	0.100
533.900	34.856	0.100
534.000	26.712	0.100
534.100	33.556	0.100
534.200	18.445	0.100
534.300	16.309	0.100
534.400	32.781	0.100
534.500	28.259	0.100
534.600	30.580	0.100
534.700	35.461	0.100
534.800	28.481	0.100
534.900	29.020	0.100
535.000	28.173	0.100
535.100	30.981	0.100
535.200	22.766	0.100
535.300	30.866	0.100
535.400	22.173	0.100
535.500	33.847	0.100
535.600	29.128	0.100
535.700	20.215	0.100
535.800	40.431	0.100
535.900	31.860	0.100
536.000	29.816	0.100
536.100	24.765	0.100
536.200	31.503	0.100
536.300	30.853	0.100
536.400	24.010	0.100
536.500	30.796	0.100
536.600	22.321	0.100
536.700	30.051	0.100
536.800	18.281	0.100
536.900	22.988	0.100
537.000	35.208	0.100
537.100	33.829	0.100
537.200	33.675	0.100
537.300	19.528	0.100
537.400	11.219	0.100
537.500	21.962	0.100
537.600	36.631	0.100
537.700	37.778	0.100
537.800	19.651	0.100
537.900	28.678	0.100
538.000	45.088	0.100
538.100	25.789	0.100
538.200	35.061	0.100
538.300	24.085	0.100
538.400	34.067	0.100
538.500	30.634	0.100
538.600	20.975	0.100
538.700	27.335	0.100
538.800	36.406	0.100
538.900	30.319	0.100
539.000	33.541	0.100
539.100	32.219	0.100
539.200	39.049	0.100
539.300	23.703	0.100
539.400	24.148	0.100
539.500	16.344	0.100
539.600	35.273	0.100
539.700	31.532	0.100
539.800	31.252	0.100
539.900	32.455	0.100
540.000	16.800	0.100
540.100	41.653	0.100
540.200	16.344	0.100
540.300	26.821	0.100
540.400	12.784	0.100
540.500	8.424	0.100
540.600	18.725	0.100
540.700	26.827	0.100
540.800	25.058	0.100
540.900	12.982	0.100
541.000	16.458	0.100
541.100	13.793	0.100
541.200	20.953	0.100
541.300	12.293	0.100
541.400	12.013	0.100
541.500	12.258	0.100
541.600	4.317	0.100
541.700	8.374	0.100
541.800	17.079	0.100
541.900	21.867	0.100
542.000	5.618	0.100
542.100	-2.877	0.100
542.200	9.026	0.100
542.300	14.192	0.100
542.400	2.395	0.100
542.500	-0.984	0.100
542.600	2.508	0.100
542.700	4.044	0.100
542.800	3.480	0.100
542.900	3.584	0.100
543.000	-7.958	0.100
543.100	4.482	0.100
543.200	0.730	0.100
543.300	11.924	0.100
543.400	4.155	0.100
543.500	-13.875	0.100
543.600	10.840	0.100
543.700	-3.926	0.100
543.800	-12.486	0.100
543.900	-7.797	0.100
544.000	1.378	0.100
544.100	5.590	0.100
544.200	2.135	0.100
544.300	4.691	0.100
544.400	-1.861	0.100
544.500	-3.896	0.100
544.600	-8.738	0.100
544.700	-2.390	0.100
544.800	0.315	0.100
544.900	0.113	0.100
545.000	-9.830	0.100
545.100	3.048	0.100
545.200	-2.160	0.100
545.300	1.828	0.100
545.400	-14.741	0.100
545.500	3.981	0.100
545.600	-1.375	0.100
545.700	-14.314	0.100
545.800	-6.506	0.100
545.900	-8.719	0.100
546.000	5.927	0.100
546.100	-2.697	0.100
546.200	-14.321	0.100
546.300	-4.324	0.100
546.400	-17.735	0.100
546.500	0.715	0.100
546.600	-11.097	0.100
546.700	2.238	0.100
546.800	-3.567	0.100
546.900	-7.304	0.100
547.000	0.489	0.100
547.100	6.089	0.100
547.200	9.844	0.100
547.300	-8.642	0.100
547.400	-16.752	0.100
547.500	5.753	0.100
547.600	-15.129	0.100
547.700	-15.381	0.100
547.800	-16.022	0.100
547.900	-1.632	0.100
548.000	4.331	0.100
548.100	-8.538	0.100
548.200	3.817	0.100
548.300	-2.939	0.100
548.400	-11.361	0.100
548.500	-10.960	0.100
548.600	-11.767	0.100
548.700	-1.462	0.101
548.800	-7.777	0.100
548.900	-15.870	0.100
549.000	-2.420	0.100
549.100	-1.293	0.100
549.200	-5.398	0.100
549.300	-10.527	0.100
549.400	-21.283	0.100
549.500	-18.070	0.100
549.600	-16.261	0.100
549.700	-1.242	0.100
549.800	-12.180	0.100
549.900	-6.795	0.100
550.000	-14.113	0.100
550.100	-11.511	0.100
550.200	-3.235	0.100
550.300	-5.581	0.100
550.400	-4.287	0.100
550.500	-10.343	0.100
550.600	-12.395	0.100
550.700	2.930	0.100
550.800	-18.498	0.100
550.900	-11.448	0.100
551.000	-1.486	0.100
551.100	-17.711	0.100
551.200	-7.637	0.100
551.300	0.918	0.100
551.400	-16.492	0.100
551.500	-13.576	0.100
551.600	-9.259	0.100
551.700	-5.982	0.100
551.800	-5.156	0.100
551.900	-15.434	0.100
552.000	-7.769	0.100
552.100	-2.137	0.101
552.200	-12.269	0.100
552.300	-4.932	0.101
552.400	-6.302	0.100
552.500	0.264	0.100
552.600	-18.867	0.100
552.700	-38.039	0.100
552.800	-23.310	0.100
552.900	-19.207	0.100
553.000	-6.816	0.100
553.100	-14.015	0.100
553.200	-13.924	0.100
553.300	-8.675	0.100
553.400	-3.639	0.101
553.500	-2.356	0.100
553.600	-4.562	0.100
553.700	-12.111	0.100
553.800	-11.512	0.100
553.900	-16.813	0.100
554.000	1.773	0.100
554.100	-16.302	0.100
554.200	-12.665	0.100
554.300	-10.623	0.100
554.400	-13.872	0.100
554.500	-10.541	0.100
554.600	-8.271	0.100
554.700	-20.215	0.100
554.800	-16.127	0.100
554.900	-18.270	0.100
555.000	-13.160	0.100
555.100	-15.266	0.100
555.200	-16.066	0.100
555.300	-20.394	0.100
555.400	-15.985	0.100
555.500	0.475	0.100
555.600	-13.323	0.100
555.700	-6.176	0.100
555.800	-18.813	0.100
555.900	-8.393	0.100
556.000	-20.864	0.100
556.100	-15.632	0.100
556.200	-13.495	0.100
556.300	1.049	0.100
556.400	-13.052	0.100
556.500	-17.183	0.100
556.600	-12.893	0.100
556.700	-13.343	0.100
556.800	-15.758	0.100
556.900	-19.171	0.100
557.000	-13.973	0.100
557.100	-22.753	0.100
557.200	-10.997	0.100
557.300	-2.799	0.100
557.400	-16.966	0.100
557.500	-16.127	0.100
557.600	-19.052	0.100
557.700	-18.312	0.100
557.800	-15.106	0.100
557.900	-17.513	0.100
558.000	-6.003	0.100
558.100	-13.564	0.100
558.200	-3.788	0.101
558.300	-11.923	0.101
558.400	-26.073	0.100
558.500	-3.593	0.101
558.600	-17.054	0.100
558.700	-22.050	0.100
558.800	-17.207	0.100
558.900	-9.032	0.100
559.000	-10.400	0.100
559.100	-19.468	0.100
559.200	-14.829	0.101
559.300	-18.029	0.100
559.400	2.143	0.100
559.500	-17.890	0.100
559.600	-19.122	0.100
559.700	-13.712	0.100
559.800	-14.640	0.101
559.900	3.779	0.100
560.000	-19.753	0.101
560.100	-6.519	0.100
560.200	-18.983	0.100
560.300	-22.550	0.100
560.400	-21.601	0.100
560.500	-5.800	0.100
560.600	-20.794	0.101
560.700	-26.510	0.101
560.800	-3.596	0.101
560.900	-24.802	0.100
561.000	-11.765	0.100
561.100	-26.176	0.100
561.200	-16.218	0.100
561.300	-15.897	0.100
561.400	-20.149	0.100
561.500	1.964	0.100
561.600	-24.377	0.100
561.700	-20.614	0.100
561.800	-12.788	0.100
561.900	-16.434	0.100
562.000	-21.898	0.101
562.100	-4.808	0.100
562.200	-22.472	0.100
562.300	-10.733	0.100
562.400	-6.931	0.100
562.500	-27.222	0.100
562.600	-10.501	0.100
562.700	-22.567	0.100
562.800	-15.380	0.100
562.900	-23.782	0.100
563.000	-12.921	0.100
563.100	-8.002	0.100
563.200	-15.429	0.100
563.300	-23.538	0.100
563.400	-17.402	0.100
563.500	-14.940	0.100
563.600	-20.179	0.100
563.700	-10.474	0.100
563.800	-23.571	0.100
563.900	-25.311	0.100
564.000	-12.393	0.100
564.100	-30.040	0.100
564.200	-24.989	0.100
564.300	-9.426	0.100
564.400	-20.056	0.100
564.500	-25.746	0.100
564.600	-1.212	0.100
564.700	-27.221	0.100
564.800	-10.828	0.100
564.900	-15.427	0.100
565.000	-17.818	0.100
565.100	-5.697	0.100
565.200	-17.102	0.100
565.300	-16.331	0.100
565.400	-20.365	0.100
565.500	-16.781	0.100
565.600	-13.685	0.100
565.700	-20.209	0.100
565.800	-13.125	0.100
565.900	-11.134	0.100
566.000	-21.193	0.100
566.100	-19.417	0.100
566.200	-7.473	0.100
566.300	-10.394	0.100
566.400	-16.521	0.100
566.500	-22.766	0.100
566.600	-9.477	0.100
566.700	-24.084	0.100
566.800	-1.103	0.100
566.900	-13.434	0.100
567.000	-12.475	0.100
567.100	-16.935	0.100
567.200	-22.746	0.100
567.300	-10.376	0.100
567.400	-15.418	0.100
567.500	-10.618	0.100
567.600	-21.610	0.101
567.700	-10.886	0.100
567.800	0.021	0.100
567.900	-21.907	0.100
568.000	-36.668	0.100
568.100	-14.118	0.100
568.200	-8.993	0.100
568.300	-7.842	0.100
568.400	-6.209	0.101
568.500	-19.473	0.100
568.600	-15.432	0.100
568.700	-21.173	0.101
568.800	-25.095	0.101
568.900	1.638	0.101
569.000	-9.453	0.100
569.100	-14.196	0.100
569.200	1.292	0.100
569.300	-21.050	0.100
569.400	-13.673	0.101
569.500	-26.009	0.100
569.600	-12.145	0.100
569.700	-14.054	0.100
569.800	6.821	0.100
569.900	-22.171	0.100
570.000	-11.124	0.100
570.100	-14.750	0.100
570.200	-24.717	0.101
570.300	-15.611	0.100
570.400	-27.684	0.100
570.500	-16.086	0.100
570.600	-3.624	0.100
570.700	-10.344	0.100
570.800	-16.965	0.100
570.900	-1.924	0.100
571.000	-4.011	0.100
571.100	-23.863	0.100
571.200	-24.333	0.100
571.300	-14.135	0.100
571.400	-16.534	0.100
571.500	-17.979	0.100
571.600	-11.921	0.101
571.700	-8.838	0.100
571.800	-10.351	0.100
571.900	-6.524	0.100
572.000	-15.341	0.100
572.100	-11.199	0.100
572.200	-24.077	0.100
572.300	-5.811	0.100
572.400	-19.007	0.100
572.500	-12.908	0.100
572.600	-5.172	0.100
572.700	-18.333	0.100
572.800	-13.894	0.100
572.900	-14.644	0.100
573.000	-17.268	0.100
573.100	-12.931	0.100
573.200	-1.844	0.100
573.300	-19.694	0.100
573.400	-12.301	0.100
573.500	-15.837	0.100
573.600	-13.095	0.101
573.700	-11.181	0.101
573.800	-5.212	0.101
573.900	-6.539	0.100
574.000	-15.606	0.101
574.100	-6.513	0.100
574.200	-26.213	0.100
574.300	-21.546	0.101
574.400	-19.582	0.100
574.500	-6.220	0.100
574.600	-11.384	0.101
574.700	-10.144	0.100
574.800	-14.627	0.100
574.900	-19.088	0.101
575.000	-23.697	0.100
575.100	-11.465	0.100
575.200	-8.174	0.100
575.300	-8.581	0.100
575.400	-10.861	0.100
575.500	-27.075	0.100
575.600	-18.722	0.100
575.700	-3.359	0.100
575.800	-12.294	0.100
575.900	-15.669	0.100
576.000	-7.268	0.101
576.100	-14.729	0.101
576.200	-11.554	0.100
576.300	-17.240	0.100
576.400	-9.891	0.101
576.500	-11.520	0.100
576.600	-4.940	0.100
576.700	-27.365	0.101
576.800	-11.659	0.100
576.900	-8.887	0.100
577.000	-16.057	0.100
577.100	-12.845	0.100
577.200	-12.836	0.100
577.300	-2.145	0.101
577.400	-18.984	0.100
577.500	-13.154	0.100
577.600	-19.396	0.100
577.700	-25.220	0.100
577.800	-17.649	0.100
577.900	-12.938	0.100
578.000	-5.756	0.100
578.100	-10.217	0.101
578.200	-15.735	0.100
578.300	-15.577	0.100
578.400	-21.217	0.100
578.500	-6.487	0.100
578.600	-19.942	0.100
578.700	-10.196	0.100
578.800	-14.745	0.100
578.900	-18.913	0.100
579.000	-13.168	0.100
579.100	-18.301	0.100
579.200	-5.562	0.100
579.300	-5.602	0.100
579.400	-12.192	0.100
579.500	-24.104	0.100
579.600	-9.691	0.100
579.700	-14.739	0.100
579.800	-7.907	0.100
579.900	-7.325	0.100
580.000	-18.769	0.100
580.100	-25.569	0.100
580.200	-16.648	0.100
580.300	-3.201	0.100
580.400	-9.050	0.100
580.500	-9.235	0.100
580.600	-3.841	0.100
580.700	-20.140	0.100
580.800	-12.937	0.100
580.900	-7.398	0.100
581.000	-14.667	0.101
581.100	-9.069	0.100
581.200	-12.231	0.100
581.300	-19.662	0.100
581.400	-19.648	0.100
581.500	-9.317	0.100
581.600	-12.961	0.101
581.700	-16.755	0.100
581.800	-5.139	0.100
581.900	-24.971	0.100
582.000	-1.465	0.100
582.100	-14.358	0.100
582.200	-20.300	0.100
582.300	-7.111	0.101
582.400	-10.144	0.100
582.500	-7.879	0.100
582.600	-16.475	0.100
582.700	-19.965	0.101
582.800	-4.927	0.100
582.900	-8.812	0.100
583.000	-16.224	0.100
583.100	-14.113	0.100
583.200	-14.011	0.100
583.300	-16.215	0.100
583.400	-4.008	0.100
583.500	-18.750	0.100
583.600	-16.463	0.100
583.700	0.815	0.100
583.800	-12.065	0.100
583.900	6.144	0.101
584.000	-15.901	0.100
584.100	-15.399	0.100
584.200	-9.735	0.100
584.300	-6.448	0.100
584.400	-35.269	0.100
584.500	-21.467	0.100
584.600	-3.948	0.101
584.700	-15.936	0.101
584.800	-4.899	0.101
584.900	-24.112	0.100
585.000	-3.557	0.100
585.100	-15.455	0.100
585.200	-19.108	0.100
585.300	-11.342	0.100
585.400	-24.931	0.100
585.500	-8.225	0.101
585.600	8.944	0.100
585.700	-18.340	0.100
585.800	-5.153	0.100
585.900	-0.995	0.101
586.000	-7.148	0.101
586.100	-16.382	0.101
586.200	-15.839	0.101
586.300	-20.676	0.100
586.400	-2.140	0.101
586.500	-29.666	0.100
586.600	-14.749	0.101
586.700	-24.990	0.100
586.800	-5.151	0.100
586.900	-14.123	0.100
587.000	0.381	0.101
587.100	-13.474	0.100
587.200	-15.011	0.100
587.300	-5.471	0.100
587.400	-3.582	0.101
587.500	-18.911	0.101
587.600	-6.901	0.100
587.700	-20.992	0.100
587.800	-1.023	0.100
587.900	0.130	0.101
588.000	-3.597	0.100
588.100	-10.678	0.100
588.200	-13.781	0.100
588.300	-11.626	0.100
588.400	-6.740	0.100
588.500	-19.715	0.100
588.600	-8.238	0.100
588.700	-17.006	0.101
588.800	-9.243	0.100
588.900	-3.269	0.100
589.000	-11.479	0.100
589.100	-20.067	0.100
589.200	-11.625	0.100
589.300	-20.290	0.100
589.400	-14.220	0.100
589.500	-21.027	0.100
589.600	-18.719	0.100
589.700	-8.644	0.100
589.800	-7.178	0.100
589.900	-5.919	0.100
590.000	-19.399	0.100
590.100	0.853	0.100
590.200	-5.714	0.100
590.300	-18.112	0.100
590.400	-18.617	0.101
590.500	-12.556	0.100
590.600	-25.103	0.100
590.700	5.626	0.100
590.800	-17.597	0.100
590.900	0.195	0.101
591.000	-8.573	0.100
591.100	0.346	0.100
591.200	-12.125	0.101
591.300	-24.611	0.100
591.400	-8.690	0.100
591.500	-6.246	0.100
591.600	-10.675	0.100
591.700	-8.942	0.100
591.800	-25.611	0.100
591.900	-16.234	0.100
592.000	-18.657	0.100
592.100	-17.716	0.100
592.200	-10.792	0.100
592.300	-18.899	0.100
592.400	-3.647	0.100
592.500	-14.482	0.101
592.600	-7.220	0.100
592.700	-13.441	0.100
592.800	-0.037	0.100
592.900	-13.535	0.100
593.000	-9.283	0.100
593.100	-9.550	0.100
593.200	-16.408	0.101
593.300	-18.355	0.100
593.400	-12.836	0.101
593.500	-4.621	0.100
593.600	-13.076	0.100
593.700	-12.619	0.100
593.800	-17.444	0.100
593.900	-18.666	0.100
594.000	-2.855	0.100
594.100	-6.999	0.100
594.200	-7.177	0.100
594.300	-17.493	0.100
594.400	-15.268	0.100
594.500	-17.327	0.100
594.600	-8.150	0.100
594.700	-9.887	0.100
594.800	-24.624	0.101
594.900	-19.836	0.100
595.000	-7.457	0.100
595.100	-17.148	0.100
595.200	0.504	0.100
595.300	-14.643	0.100
595.400	0.538	0.100
595.500	-3.662	0.100
595.600	-1.599	0.100
595.700	-15.875	0.100
595.800	-9.779	0.100
595.900	-16.858	0.100
596.000	-4.928	0.100
596.100	6.964	0.100
596.200	-11.035	0.100
596.300	-11.795	0.100
596.400	-25.102	0.100
596.500	-11.826	0.100
596.600	-10.664	0.100
596.700	-11.618	0.100
596.800	-19.143	0.100
596.900	-21.290	0.100
597.000	-0.788	0.100
597.100	-11.431	0.100
597.200	-17.402	0.100
597.300	-18.983	0.100
597.400	-21.167	0.100
597.500	-21.220	0.100
597.600	-9.308	0.100
597.700	-12.284	0.100
597.800	-8.509	0.100
597.900	-21.292	0.100
598.000	-13.016	0.100
598.100	-8.422	0.100
598.200	-14.392	0.100
598.300	-7.491	0.100
598.400	-13.586	0.100
598.500	-7.536	0.100
598.600	-6.082	0.100
598.700	-16.055	0.100
598.800	5.892	0.100
598.900	-13.032	0.100
599.000	-21.304	0.100
599.100	-8.199	0.100
599.200	-14.651	0.100
599.300	-35.059	0.100
599.400	-16.403	0.100
599.500	-3.235	0.100
599.600	-9.620	0.100
599.700	-22.490	0.100
599.800	-7.818	0.100
599.900	-6.098	0.100
600.000	-16.066	0.100
600.100	-14.953	0.100
600.200	-3.617	0.100
600.300	-11.266	0.100
600.400	-7.744	0.101
600.500	-28.923	0.100
600.600	-3.290	0.100
600.700	1.663	0.101
600.800	-20.012	0.100
600.900	-16.866	0.100
601.000	-15.468	0.100
601.100	-28.526	0.101
601.200	-11.476	0.100
601.300	-14.340	0.100
601.400	-4.496	0.100
601.500	2.042	0.100
601.600	-11.229	0.100
601.700	-12.277	0.100
601.800	-27.635	0.100
601.900	-15.773	0.100
602.000	2.228	0.100
602.100	-16.447	0.100
602.200	0.407	0.100
602.300	-7.428	0.100
602.400	-12.942	0.100
602.500	-19.946	0.100
602.600	-9.404	0.100
602.700	-7.901	0.100
602.800	-13.385	0.100
602.900	-19.467	0.100
603.000	-8.621	0.100
603.100	-16.589	0.100
603.200	-11.584	0.100
603.300	-13.286	0.100
603.400	1.497	0.100
603.500	-8.912	0.100
603.600	-0.210	0.100
603.700	-24.162	0.101
603.800	-9.985	0.100
603.900	-10.910	0.100
604.000	-23.325	0.100
604.100	-0.746	0.100
604.200	-12.724	0.100
604.300	-5.491	0.100
604.400	-8.802	0.100
604.500	-17.028	0.100
604.600	-11.325	0.100
604.700	-10.106	0.100
604.800	-18.922	0.100
604.900	-13.210	0.100
605.000	-14.017	0.100
605.100	-26.712	0.100
605.200	-15.308	0.101
605.300	-14.119	0.100
605.400	-10.294	0.100
605.500	-5.348	0.100
605.600	-13.497	0.101
605.700	-3.312	0.100
605.800	-10.883	0.100
605.900	-10.705	0.101
606.000	-27.448	0.100
606.100	-6.032	0.100
606.200	-3.882	0.101
606.300	-5.685	0.100
606.400	-9.378	0.100
606.500	4.002	0.101
606.600	-8.631	0.100
606.700	-29.526	0.100
606.800	-14.640	0.100
606.900	-23.773	0.101
607.000	-4.167	0.100
607.100	-20.792	0.100
607.200	-19.050	0.100
607.300	-4.667	0.100
607.400	-13.952	0.100
607.500	-15.362	0.100
607.600	-3.539	0.100
607.700	-9.612	0.101
607.800	-8.342	0.100
607.900	-11.526	0.100
608.000	-8.416	0.100
608.100	-24.228	0.100
608.200	-13.085	0.100
608.300	-5.968	0.101
608.400	-8.871	0.100
608.500	-14.483	0.100
608.600	-27.483	0.100
608.700	-4.890	0.101
608.800	-2.803	0.100
608.900	-16.184	0.100
609.000	-12.050	0.100
609.100	-16.274	0.100
609.200	-11.071	0.100
609.300	-6.256	0.100
609.400	-11.090	0.100
609.500	-8.733	0.100
609.600	-5.711	0.101
609.700	-19.644	0.100
609.800	-22.940	0.100
609.900	-6.520	0.101
610.000	-7.264	0.100
610.100	-4.366	0.100
610.200	-19.342	0.100
610.300	-16.793	0.100
610.400	-21.816	0.101
610.500	3.517	0.101
610.600	-17.778	0.101
610.700	-8.745	0.100
610.800	-14.308	0.100
610.900	-19.869	0.100
611.000	-18.876	0.100
611.100	-4.667	0.100
611.200	-5.118	0.100
611.300	-6.853	0.100
611.400	-5.037	0.100
611.500	-15.911	0.101
611.600	-22.141	0.100
611.700	-14.935	0.100
611.800	-10.823	0.101
611.900	-9.499	0.100
612.000	-1.426	0.100
612.100	-13.174	0.101
612.200	-5.768	0.101
612.300	-10.025	0.101
612.400	-6.082	0.100
612.500	-14.176	0.100
612.600	-26.345	0.101
612.700	-2.400	0.101
612.800	-9.457	0.101
612.900	-15.896	0.101
613.000	-4.231	0.100
613.100	-2.580	0.100
613.200	-12.414	0.100
613.300	-1.611	0.100
613.400	-8.294	0.100
613.500	-19.225	0.100
613.600	3.797	0.100
613.700	-11.689	0.100
613.800	-15.960	0.100
613.900	-23.922	0.100
614.000	-5.436	0.100
614.100	-2.406	0.100
614.200	-40.604	0.100
614.300	-5.688	0.100
614.400	-9.061	0.100
614.500	-9.977	0.100
614.600	-8.511	0.101
614.700	-21.058	0.101
614.800	-9.772	0.100
614.900	-12.300	0.101
615.000	-24.038	0.100
615.100	-20.606	0.100
615.200	-8.773	0.100
615.300	16.851	0.101
615.400	-13.256	0.101
615.500	-24.147	0.101
615.600	-5.746	0.100
615.700	-11.128	0.100
615.800	-16.331	0.100
615.900	-7.749	0.101
616.000	-29.388	0.100
616.100	-13.588	0.100
616.200	-18.706	0.100
616.300	-3.407	0.101
616.400	-19.689	0.100
616.500	3.754	0.100
616.600	3.935	0.100
616.700	-22.308	0.101
616.800	-19.071	0.100
616.900	-8.941	0.100
617.000	-12.077	0.100
617.100	-2.846	0.101
617.200	7.450	0.100
617.300	-17.384	0.100
617.400	-9.829	0.100
617.500	-14.723	0.100
617.600	-7.982	0.100
617.700	-11.309	0.100
617.800	-10.569	0.101
617.900	-13.074	0.100
618.000	-10.730	0.101
618.100	-13.938	0.100
618.200	-16.022	0.100
618.300	-8.907	0.100
618.400	-14.217	0.100
618.500	-13.101	0.100
618.600	-12.520	0.100
618.700	-12.576	0.101
618.800	-9.619	0.100
618.900	-10.548	0.100
619.000	-15.862	0.100
619.100	-9.629	0.100
619.200	1.803	0.101
619.300	-16.269	0.100
619.400	-2.383	0.101
619.500	-13.960	0.101
619.600	-1.928	0.100
619.700	-6.975	0.100
619.800	-8.423	0.100
619.900	-15.465	0.101
620.000	-16.978	0.100
620.100	-17.506	0.100
620.200	-8.622	0.101
620.300	-18.859	0.100
620.400	-17.390	0.101
620.500	-22.572	0.100
620.600	4.963	0.100
620.700	1.919	0.100
620.800	0.180	0.101
620.900	-5.712	0.101
621.000	-10.792	0.100
621.100	-29.399	0.101
621.200	-17.341	0.101
621.300	-18.911	0.101
621.400	-13.615	0.100
621.500	-12.702	0.101
621.600	-2.994	0.100
621.700	-11.179	0.101
621.800	-14.032	0.101
621.900	-7.115	0.100
622.000	-10.182	0.101
622.100	0.854	0.101
622.200	-3.387	0.101
622.300	-12.344	0.100
622.400	-13.373	0.100
622.500	-14.888	0.100
622.600	-20.058	0.100
622.700	-7.077	0.101
622.800	-20.062	0.101
622.900	-2.202	0.101
623.000	-9.507	0.101
623.100	-15.236	0.101
623.200	-7.173	0.101
623.300	-10.863	0.101
623.400	-8.915	0.100
623.500	-31.784	0.101
623.600	-7.264	0.100
623.700	2.883	0.101
623.800	-22.331	0.100
623.900	-27.871	0.100
624.000	-4.905	0.100
624.100	-13.288	0.101
624.200	-7.740	0.101
624.300	0.263	0.101
624.400	-5.295	0.101
624.500	-10.972	0.100
624.600	-12.656	0.100
624.700	-6.531	0.101
624.800	-6.905	0.101
624.900	-14.710	0.100
625.000	-18.191	0.100
625.100	-14.440	0.100
625.200	-0.453	0.100
625.300	-19.282	0.100
625.400	-4.761	0.100
625.500	-21.047	0.101
625.600	-0.840	0.101
625.700	-8.713	0.100
625.800	-14.303	0.100
625.900	-28.456	0.101
626.000	-1.805	0.101
626.100	-24.606	0.101
626.200	-16.423	0.100
626.300	-10.662	0.100
626.400	-9.555	0.100
626.500	-4.572	0.101
626.600	-1.251	0.100
626.700	-9.637	0.100
626.800	-12.529	0.101
626.900	-3.138	0.101
627.000	-32.015	0.101
627.100	-0.892	0.100
627.200	-19.336	0.100
627.300	-8.038	0.100
627.400	-20.951	0.100
627.500	-18.235	0.100
627.600	-1.822	0.101
627.700	-12.671	0.100
627.800	9.790	0.100
627.900	-22.151	0.101
628.000	-6.389	0.100
628.100	-12.562	0.101
628.200	-9.287	0.101
628.300	-15.543	0.100
628.400	-7.204	0.100
628.500	-17.532	0.101
628.600	-12.920	0.101
628.700	-9.378	0.101
628.800	-20.245	0.101
628.900	-12.430	0.101
629.000	-24.751	0.101
629.100	-11.274	0.101
629.200	-12.488	0.101
629.300	-18.855	0.101
629.400	-10.781	0.101
629.500	-15.372	0.101
629.600	-6.926	0.101
629.700	-10.118	0.101
629.800	-11.983	0.100
629.900	-12.624	0.101
630.000	-10.123	0.100
630.100	-6.086	0.101
630.200	3.140	0.100
630.300	-15.612	0.101
630.400	-4.489	0.100
630.500	-4.042	0.101
630.600	0.651	0.101
630.700	2.117	0.101
630.800	-7.456	0.100
630.900	-3.709	0.101
631.000	3.054	0.101
631.100	6.201	0.100
631.200	4.956	0.101
631.300	2.671	0.101
631.400	0.183	0.101
631.500	-1.239	0.101
631.600	-9.875	0.100
631.700	-2.521	0.101
631.800	5.780	0.101
631.900	11.331	0.101
632.000	12.953	0.101
632.100	12.782	0.101
632.200	-4.288	0.100
632.300	3.376	0.101
632.400	11.010	0.100
632.500	2.966	0.100
632.600	-0.344	0.100
632.700	5.093	0.100
632.800	4.121	0.101
632.900	-3.081	0.100
633.000	5.853	0.100
633.100	5.711	0.101
633.200	6.820	0.101
633.300	-0.186	0.101
633.400	7.369	0.101
633.500	7.799	0.101
633.600	9.748	0.101
633.700	-8.526	0.100
633.800	9.708	0.100
633.900	7.696	0.101
634.000	9.002	0.100
634.100	-4.589	0.100
634.200	7.382	0.101
634.300	7.937	0.100
634.400	-4.364	0.101
634.500	0.643	0.101
634.600	14.421	0.100
634.700	0.955	0.101
634.800	7.367	0.100
634.900	9.554	0.101
635.000	13.541	0.101
635.100	23.246	0.101
635.200	9.858	0.101
635.300	14.456	0.100
635.400	-0.953	0.100
635.500	2.462	0.101
635.600	-8.682	0.101
635.700	8.089	0.101
635.800	21.453	0.101
635.900	-7.747	0.101
636.000	-0.238	0.101
636.100	7.590	0.100
636.200	16.127	0.101
636.300	9.897	0.101
636.400	0.601	0.101
636.500	5.609	0.101
636.600	11.369	0.100
636.700	-0.726	0.101
636.800	17.743	0.100
636.900	15.851	0.100
637.000	0.768	0.101
637.100	3.363	0.101
637.200	2.615	0.100
637.300	-5.568	0.101
637.400	9.398	0.101
637.500	-1.138	0.101
637.600	6.120	0.101
637.700	17.337	0.101
637.800	1.335	0.101
637.900	10.275	0.101
638.000	-2.383	0.101
638.100	14.594	0.101
638.200	12.716	0.101
638.300	13.971	0.100
638.400	4.790	0.101
638.500	-2.048	0.101
638.600	1.376	0.101
638.700	4.067	0.101
638.800	7.200	0.100
638.900	15.513	0.100
639.000	8.776	0.101
639.100	13.966	0.101
639.200	-1.176	0.101
639.300	-0.032	0.100
639.400	10.330	0.101
639.500	-0.820	0.101
639.600	17.094	0.101
639.700	4.948	0.101
639.800	7.755	0.101
639.900	14.182	0.101
640.000	3.904	0.101
640.100	14.389	0.100
640.200	11.953	0.101
640.300	16.396	0.100
640.400	5.540	0.100
640.500	2.729	0.100
640.600	11.526	0.100
640.700	13.167	0.100
640.800	8.743	0.101
640.900	3.578	0.100
641.000	7.180	0.101
641.100	10.759	0.100
641.200	6.320	0.101
641.300	8.553	0.101
641.400	7.274	0.100
641.500	9.796	0.100
641.600	6.712	0.101
641.700	17.277	0.100
641.800	17.652	0.100
641.900	9.209	0.101
642.000	23.059	0.100
642.100	11.355	0.100
642.200	-0.083	0.101
642.300	17.038	0.101
642.400	20.625	0.101
642.500	20.748	0.101
642.600	7.894	0.101
642.700	-0.636	0.100
642.800	15.058	0.101
642.900	17.980	0.100
643.000	19.047	0.100
643.100	18.608	0.100
643.200	22.448	0.101
643.300	10.524	0.100
643.400	19.306	0.101
643.500	8.282	0.100
643.600	18.678	0.101
643.700	17.972	0.100
643.800	15.666	0.101
643.900	12.585	0.101
644.000	11.309	0.100
644.100	13.230	0.100
644.200	4.822	0.100
644.300	26.407	0.101
644.400	15.864	0.101
644.500	26.956	0.101
644.600	21.817	0.101
644.700	12.331	0.100
644.800	3.853	0.101
644.900	37.835	0.101
645.000	13.429	0.101
645.100	17.202	0.101
645.200	19.392	0.101
645.300	15.529	0.101
645.400	13.383	0.101
645.500	18.426	0.101
645.600	9.651	0.101
645.700	16.843	0.101
645.800	26.536	0.101
645.900	3.678	0.101
646.000	19.578	0.101
646.100	12.446	0.101
646.200	7.261	0.101
646.300	8.330	0.101
646.400	31.256	0.100
646.500	16.901	0.101
646.600	17.794	0.101
646.700	19.330	0.101
646.800	15.527	0.101
646.900	17.003	0.101
647.000	16.334	0.100
647.100	13.067	0.101
647.200	18.000	0.100
647.300	9.648	0.101
647.400	16.138	0.101
647.500	14.468	0.101
647.600	28.427	0.101
647.700	18.876	0.101
647.800	18.373	0.101
647.900	6.136	0.100
648.000	30.540	0.101
648.100	14.392	0.101
648.200	20.498	0.101
648.300	9.712	0.100
648.400	17.366	0.101
648.500	16.467	0.101
648.600	22.698	0.101
648.700	9.927	0.101
648.800	19.037	0.101
648.900	19.458	0.101
649.000	1.023	0.100
649.100	26.252	0.101
649.200	11.382	0.101
649.300	9.170	0.101
649.400	16.664	0.101
649.500	8.739	0.101
649.600	9.267	0.101
649.700	-1.598	0.101
649.800	30.952	0.101
649.900	12.866	0.101
650.000	21.176	0.101
650.100	20.928	0.100
650.200	21.878	0.101
650.300	6.829	0.101
650.400	21.104	0.101
650.500	15.174	0.101
650.600	8.639	0.100
650.700	-0.212	0.101
650.800	37.866	0.101
650.900	19.805	0.101
651.000	35.928	0.101
651.100	12.221	0.101
651.200	21.007	0.101
651.300	17.420	0.101
651.400	20.121	0.101
651.500	10.224	0.101
651.600	16.180	0.101
651.700	29.493	0.101
651.800	28.481	0.101
651.900	18.456	0.101
652.000	11.640	0.101
652.100	21.193	0.101
652.200	25.002	0.100
652.300	19.319	0.101
652.400	9.874	0.100
652.500	4.265	0.100
652.600	21.737	0.101
652.700	17.842	0.100
652.800	27.681	0.101
652.900	27.265	0.100
653.000	30.782	0.100
653.100	15.747	0.101
653.200	23.172	0.100
653.300	22.680	0.101
653.400	29.440	0.101
653.500	4.694	0.101
653.600	22.945	0.100
653.700	16.711	0.101
653.800	15.113	0.101
653.900	31.797	0.100
654.000	8.997	0.101
654.100	40.085	0.101
654.200	26.922	0.101
654.300	25.760	0.100
654.400	12.103	0.101
654.500	32.473	0.101
654.600	40.581	0.101
654.700	11.488	0.101
654.800	12.169	0.101
654.900	19.855	0.100
655.000	15.826	0.101
655.100	24.987	0.100
655.200	25.851	0.101
655.300	19.523	0.100
655.400	26.473	0.100
655.500	27.017	0.101
655.600	19.973	0.101
655.700	28.432	0.100
655.800	28.164	0.101
655.900	17.836	0.100
656.000	28.733	0.101
656.100	25.375	0.101
656.200	30.073	0.101
656.300	26.391	0.101
656.400	11.283	0.101
656.500	16.118	0.100
656.600	21.661	0.100
656.700	20.768	0.100
656.800	19.874	0.100
656.900	18.961	0.101
657.000	38.447	0.100
657.100	16.725	0.100
657.200	19.466	0.101
657.300	32.120	0.101
657.400	19.044	0.101
657.500	26.182	0.100
657.600	34.802	0.101
657.700	24.316	0.101
657.800	33.550	0.101
657.900	11.684	0.100
658.000	18.902	0.101
658.100	10.830	0.101
658.200	34.546	0.101
658.300	20.342	0.101
658.400	13.843	0.100
658.500	33.362	0.101
658.600	22.008	0.101
658.700	14.526	0.101
658.800	33.207	0.100
658.900	16.876	0.101
659.000	19.843	0.101
659.100	35.435	0.100
659.200	21.137	0.100
659.300	28.142	0.101
659.400	15.761	0.100
659.500	14.761	0.101
659.600	19.243	0.100
659.700	33.135	0.101
659.800	31.089	0.101
659.900	19.079	0.101
660.000	31.064	0.101
660.100	20.587	0.101
660.200	9.969	0.100
660.300	19.671	0.100
660.400	24.327	0.100
660.500	20.490	0.101
660.600	20.368	0.100
660.700	33.471	0.100
660.800	19.934	0.101
660.900	29.189	0.101
661.000	36.383	0.100
661.100	22.335	0.100
661.200	35.668	0.101
661.300	22.419	0.101
661.400	15.390	0.100
661.500	40.963	0.101
661.600	20.230	0.100
661.700	20.747	0.100
661.800	36.510	0.100
661.900	30.274	0.100
662.000	31.795	0.100
662.100	17.721	0.100
662.200	6.819	0.100
662.300	37.181	0.101
662.400	27.185	0.101
662.500	20.146	0.100
662.600	27.828	0.101
662.700	18.425	0.101
662.800	21.009	0.101
662.900	15.162	0.100
663.000	30.394	0.100
663.100	23.458	0.100
663.200	24.454	0.100
663.300	37.010	0.100
663.400	23.955	0.100
663.500	26.067	0.101
663.600	41.004	0.101
663.700	13.442	0.100
663.800	22.949	0.100
663.900	18.926	0.101
664.000	17.837	0.100
664.100	25.829	0.100
664.200	30.951	0.100
664.300	13.843	0.100
664.400	28.931	0.100
664.500	32.678	0.101
664.600	22.151	0.101
664.700	21.511	0.101
664.800	29.245	0.101
664.900	23.135	0.100
665.000	12.524	0.100
665.100	36.186	0.101
665.200	22.177	0.101
665.300	31.309	0.101
665.400	22.314	0.100
665.500	25.180	0.100
665.600	41.875	0.100
665.700	14.582	0.100
665.800	26.014	0.101
665.900	28.218	0.100
666.000	22.917	0.101
666.100	32.945	0.101
666.200	39.995	0.101
666.300	14.081	0.100
666.400	10.086	0.100
666.500	29.516	0.100
666.600	44.344	0.100
666.700	29.952	0.100
666.800	22.346	0.100
666.900	10.022	0.101
667.000	34.146	0.100
667.100	28.753	0.100
667.200	4.402	0.100
667.300	35.666	0.100
667.400	16.148	0.100
667.500	24.389	0.101
667.600	18.348	0.101
667.700	26.715	0.101
667.800	33.627	0.101
667.900	42.936	0.101
668.000	23.619	0.100
668.100	23.813	0.101
668.200	30.925	0.100
668.300	32.688	0.100
668.400	22.492	0.101
668.500	21.679	0.101
668.600	36.865	0.101
668.700	20.034	0.100
668.800	32.589	0.101
668.900	19.204	0.100
669.000	25.642	0.101
669.100	25.724	0.100
669.200	32.971	0.100
669.300	49.243	0.101
669.400	30.835	0.100
669.500	15.117	0.100
669.600	41.405	0.100
669.700	17.221	0.100
669.800	18.589	0.101
669.900	24.192	0.101
670.000	27.684	0.100
670.100	30.602	0.101
670.200	48.163	0.101
670.300	17.194	0.101
670.400	36.093	0.101
670.500	20.319	0.100
670.600	28.718	0.100
670.700	24.254	0.100
670.800	27.084	0.100
670.900	28.566	0.100
671.000	25.803	0.100
671.100	22.985	0.100
671.200	51.824	0.100
671.300	26.662	0.101
671.400	28.321	0.101
671.500	14.872	0.100
671.600	30.679	0.100
671.700	23.723	0.100
671.800	29.020	0.101
671.900	29.201	0.101
672.000	38.028	0.101
672.100	25.999	0.100
672.200	16.804	0.100
672.300	18.107	0.100
672.400	30.670	0.101
672.500	25.764	0.100
672.600	31.379	0.100
672.700	18.703	0.100
672.800	33.673	0.100
672.900	27.127	0.100
673.000	31.938	0.100
673.100	19.604	0.100
673.200	22.805	0.100
673.300	37.204	0.100
673.400	22.980	0.100
673.500	27.792	0.100
673.600	22.395	0.100
673.700	37.783	0.100
673.800	29.440	0.100
673.900	32.547	0.100
674.000	37.615	0.101
674.100	18.657	0.101
674.200	27.711	0.101
674.300	36.344	0.100
674.400	20.696	0.100
674.500	30.943	0.100
674.600	12.964	0.100
674.700	27.417	0.100
674.800	25.191	0.100
674.900	28.029	0.100
675.000	32.367	0.101
675.100	17.640	0.101
675.200	29.112	0.100
675.300	27.957	0.100
675.400	26.501	0.101
675.500	42.134	0.100
675.600	12.538	0.101
675.700	23.674	0.101
675.800	30.600	0.101
675.900	33.168	0.101
676.000	38.965	0.100
676.100	33.202	0.100
676.200	36.144	0.100
676.300	23.523	0.101
676.400	19.234	0.101
676.500	15.948	0.100
676.600	32.916	0.101
676.700	27.993	0.101
676.800	30.401	0.100
676.900	29.085	0.100
677.000	25.575	0.100
677.100	31.220	0.101
677.200	35.884	0.100
677.300	17.119	0.100
677.400	22.632	0.100
677.500	33.503	0.101
677.600	19.838	0.100
677.700	36.399	0.100
677.800	20.976	0.101
677.900	30.736	0.101
678.000	15.561	0.100
678.100	16.433	0.101
678.200	28.520	0.101
678.300	34.708	0.100
678.400	22.003	0.100
678.500	27.492	0.100
678.600	36.835	0.100
678.700	22.788	0.100
678.800	27.495	0.100
678.900	29.298	0.100
679.000	25.508	0.101
679.100	27.033	0.101
679.200	30.740	0.100
679.300	28.795	0.100
679.400	33.307	0.101
679.500	34.937	0.101
679.600	34.749	0.101
679.700	19.616	0.101
679.800	29.140	0.100
679.900	17.614	0.101
680.000	33.667	0.100
680.100	32.313	0.100
680.200	29.085	0.100
680.300	42.636	0.101
680.400	24.772	0.101
680.500	21.395	0.101
680.600	36.430	0.100
680.700	26.978	0.100
680.800	29.006	0.100
680.900	16.673	0.100
681.000	44.290	0.101
681.100	37.348	0.100
681.200	34.386	0.100
681.300	44.614	0.100
681.400	27.309	0.100
681.500	23.837	0.100
681.600	19.916	0.100
681.700	23.948	0.101
681.800	27.800	0.100
681.900	20.991	0.101
682.000	26.259	0.101
682.100	30.845	0.101
682.200	42.750	0.100
682.300	36.700	0.101
682.400	25.318	0.101
682.500	27.500	0.100
682.600	25.501	0.100
682.700	19.917	0.100
682.800	26.393	0.101
682.900	25.079	0.100
683.000	30.784	0.100
683.100	32.662	0.101
683.200	24.434	0.100
683.300	46.719	0.100
683.400	22.306	0.101
683.500	30.192	0.100
683.600	21.727	0.100
683.700	22.959	0.101
683.800	24.264	0.100
683.900	34.806	0.101
684.000	29.345	0.100
684.100	22.958	0.101
684.200	28.714	0.100
684.300	26.429	0.101
684.400	24.792	0.100
684.500	32.117	0.100
684.600	27.791	0.100
684.700	32.481	0.100
684.800	32.128	0.100
684.900	23.645	0.100
685.000	31.431	0.101
685.100	15.801	0.100
685.200	29.023	0.100
685.300	31.667	0.101
685.400	37.390	0.100
685.500	19.217	0.100
685.600	18.357	0.100
685.700	38.753	0.100
685.800	26.090	0.101
685.900	35.430	0.100
686.000	28.237	0.101
686.100	41.600	0.100
686.200	43.063	0.101
686.300	20.351	0.100
686.400	36.516	0.101
686.500	11.446	0.101
686.600	36.002	0.100
686.700	21.919	0.100
686.800	22.692	0.100
686.900	30.606	0.100
687.000	24.165	0.100
687.100	30.956	0.101
687.200	36.632	0.101
687.300	23.602	0.100
687.400	36.082	0.100
687.500	32.596	0.100
687.600	25.595	0.101
687.700	24.414	0.101
687.800	21.378	0.100
687.900	24.110	0.100
688.000	48.054	0.100
688.100	27.975	0.100
688.200	25.648	0.100
688.300	28.728	0.100
688.400	27.162	0.101
688.500	28.068	0.100
688.600	18.717	0.100
688.700	23.306	0.100
688.800	34.217	0.101
688.900	34.913	0.100
689.000	22.012	0.101
689.100	25.157	0.100
689.200	22.508	0.101
689.300	29.078	0.100
689.400	21.696	0.100
689.500	10.336	0.100
689.600	36.418	0.100
689.700	42.938	0.100
689.800	30.283	0.100
689.900	26.563	0.101
690.000	37.612	0.100
690.100	33.386	0.101
690.200	19.279	0.100
690.300	44.226	0.100
690.400	21.423	0.101
690.500	27.243	0.100
690.600	22.607	0.101
690.700	10.687	0.100
690.800	23.970	0.100
690.900	17.506	0.101
691.000	14.891	0.100
691.100	22.942	0.101
691.200	11.054	0.100
691.300	7.033	0.101
691.400	24.423	0.101
691.500	12.505	0.101
691.600	13.720	0.101
691.700	12.825	0.101
691.800	7.512	0.101
691.900	10.845	0.101
692.000	23.724	0.101
692.100	7.306	0.101
692.200	2.872	0.101
692.300	2.856	0.101
692.400	9.604	0.100
692.500	10.324	0.100
692.600	3.901	0.100
692.700	4.386	0.101
692.800	-0.073	0.101
692.900	10.379	0.100
693.000	-0.018	0.101
693.100	0.028	0.100
693.200	-5.038	0.100
693.300	3.032	0.100
693.400	2.947	0.101
693.500	-0.915	0.101
693.600	-0.828	0.101
693.700	3.644	0.100
693.800	6.709	0.100
693.900	-3.573	0.100
694.000	-1.906	0.100
694.100	-11.578	0.101
694.200	1.721	0.100
694.300	-0.312	0.101
694.400	0.185	0.101
694.500	-8.303	0.100
694.600	-4.239	0.100
694.700	-5.707	0.101
694.800	-14.667	0.101
694.900	-4.552	0.100
695.000	-1.085	0.100
695.100	-4.564	0.101
695.200	6.684	0.100
695.300	-4.789	0.100
695.400	-13.427	0.100
695.500	6.599	0.101
695.600	0.203	0.100
695.700	10.830	0.101
695.800	-12.214	0.100
695.900	5.276	0.100
696.000	-3.276	0.100
696.100	-16.951	0.101
696.200	-5.530	0.100
696.300	-12.405	0.100
696.400	1.950	0.101
696.500	-3.969	0.100
696.600	-15.455	0.101
696.700	-8.447	0.100
696.800	-20.744	0.101
696.900	0.028	0.100
697.000	-4.374	0.100
697.100	-7.853	0.100
697.200	0.054	0.100
697.300	-6.617	0.100
697.400	-5.021	0.100
697.500	-14.598	0.100
697.600	-3.904	0.100
697.700	-12.714	0.100
697.800	12.145	0.101
697.900	-6.260	0.100
698.000	-3.796	0.100
698.100	-9.653	0.101
698.200	-6.809	0.100
698.300	-5.867	0.100
698.400	-0.515	0.100
698.500	-14.091	0.100
698.600	-9.763	0.100
698.700	-12.236	0.100
698.800	3.994	0.101
698.900	-16.267	0.100
699.000	-5.494	0.101
699.100	-2.707	0.101
699.200	-7.751	0.101
699.300	-1.501	0.100
699.400	-18.014	0.101
699.500	-28.724	0.101
699.600	-6.200	0.100
699.700	-8.857	0.100
699.800	0.537	0.100
699.900	4.447	0.101
700.000	-8.311	0.101
700.100	-4.904	0.101
700.200	-15.462	0.101
700.300	-8.423	0.101
700.400	-15.982	0.100
700.500	-6.633	0.101
700.600	-13.569	0.100
700.700	-17.689	0.101
700.800	-13.999	0.100
700.900	-17.469	0.100
701.000	-14.512	0.100
701.100	-15.584	0.100
701.200	-10.139	0.100
701.300	-16.467	0.100
701.400	0.582	0.100
701.500	0.941	0.100
701.600	-16.962	0.101
701.700	-14.112	0.100
701.800	-26.016	0.101
701.900	-7.947	0.101
702.000	-17.649	0.101
702.100	-16.913	0.100
702.200	-14.244	0.101
702.300	-11.973	0.101
702.400	-12.265	0.100
702.500	-12.775	0.100
702.600	-4.615	0.100
702.700	-14.964	0.100
702.800	-4.588	0.100
702.900	-15.145	0.100
703.000	-22.157	0.100
703.100	-16.863	0.100
703.200	-11.606	0.100
703.300	-3.374	0.100
703.400	-20.356	0.100
703.500	-14.644	0.100
703.600	-19.927	0.100
703.700	-3.238	0.100
703.800	-7.311	0.100
703.900	-5.545	0.100
704.000	-14.434	0.101
704.100	-13.905	0.100
704.200	-14.822	0.100
704.300	-18.702	0.100
704.400	-4.081	0.100
704.500	-23.418	0.100
704.600	-23.234	0.100
704.700	-1.898	0.100
704.800	-17.250	0.100
704.900	-22.233	0.100
705.000	-16.165	0.100
705.100	0.518	0.100
705.200	-15.649	0.100
705.300	-17.277	0.100
705.400	-9.193	0.101
705.500	-5.493	0.100
705.600	-3.188	0.100
705.700	-12.955	0.100
705.800	-19.417	0.100
705.900	-10.154	0.100
706.000	-9.357	0.100
706.100	-16.754	0.100
706.200	-0.920	0.100
706.300	-16.019	0.100
706.400	-17.870	0.100
706.500	-11.928	0.100
706.600	-15.486	0.100
706.700	-17.813	0.100
706.800	-18.477	0.100
706.900	-21.445	0.100
707.000	-11.344	0.100
707.100	-11.466	0.100
707.200	-16.951	0.100
707.300	-23.817	0.100
707.400	-23.334	0.100
707.500	-8.924	0.100
707.600	-8.108	0.100
707.700	-21.351	0.100
707.800	-17.366	0.100
707.900	4.988	0.100
708.000	-11.950	0.100
708.100	-26.441	0.101
708.200	-2.499	0.100
708.300	-30.059	0.100
708.400	-21.692	0.100
708.500	-16.395	0.100
708.600	-15.441	0.100
708.700	-5.990	0.100
708.800	-10.925	0.100
708.900	-25.586	0.100
709.000	-11.945	0.100
709.100	-13.109	0.100
709.200	-11.374	0.100
709.300	-8.350	0.100
709.400	-21.721	0.100
709.500	-23.239	0.100
709.600	-11.602	0.100
709.700	-14.809	0.100
709.800	-3.241	0.100
709.900	-12.539	0.100
710.000	-19.464	0.100
710.100	-21.950	0.100
710.200	-21.094	0.100
710.300	0.377	0.100
710.400	-15.028	0.100
710.500	-29.998	0.100
710.600	-9.210	0.100
710.700	-6.930	0.101
710.800	-16.977	0.100
710.900	-12.711	0.101
711.000	-14.186	0.100
711.100	-9.879	0.100
711.200	-6.648	0.100
711.300	-15.681	0.100
711.400	-10.736	0.100
711.500	-3.452	0.100
711.600	-5.185	0.100
711.700	-15.007	0.100
711.800	-8.637	0.100
711.900	-17.075	0.100
712.000	-11.275	0.100
712.100	-0.808	0.100
712.200	-7.278	0.100
712.300	-16.909	0.100
712.400	-13.556	0.100
712.500	-17.143	0.100
712.600	-30.453	0.100
712.700	-14.146	0.100
712.800	-13.167	0.100
712.900	-20.311	0.100
713.000	-17.516	0.100
713.100	-28.923	0.100
713.200	-15.632	0.100
713.300	-14.606	0.100
713.400	-22.281	0.100
713.500	-9.216	0.100
713.600	-9.370	0.100
713.700	-12.590	0.100
713.800	-17.327	0.100
713.900	-22.201	0.100
714.000	-17.903	0.100
714.100	-10.619	0.100
714.200	-26.951	0.100
714.300	-9.664	0.100
714.400	-23.411	0.100
714.500	-9.934	0.100
714.600	-23.385	0.100
714.700	-20.474	0.100
714.800	-13.577	0.100
714.900	-10.344	0.100
715.000	-15.508	0.100
715.100	-22.354	0.100
715.200	-20.729	0.100
715.300	-17.562	0.100
715.400	-14.183	0.100
715.500	-17.341	0.100
715.600	-19.343	0.100
715.700	-14.831	0.100
715.800	-17.516	0.100
715.900	-8.870	0.100
716.000	-10.994	0.100
716.100	-18.758	0.100
716.200	-1.002	0.100
716.300	-10.783	0.100
716.400	-18.303	0.100
716.500	-12.260	0.100
716.600	-16.383	0.100
716.700	-17.496	0.100
716.800	-17.068	0.100
716.900	-24.625	0.100
717.000	-18.508	0.100
717.100	-12.313	0.100
717.200	-14.431	0.100
717.300	-11.408	0.100
717.400	-11.207	0.100
717.500	-20.156	0.100
717.600	-30.002	0.100
717.700	-7.083	0.100
717.800	-18.158	0.100
717.900	-12.281	0.100
718.000	-11.639	0.100
718.100	-16.486	0.100
718.200	-18.986	0.100
718.300	-15.712	0.100
718.400	-12.462	0.100
718.500	-1.732	0.101
718.600	-12.191	0.100
718.700	-20.802	0.100
718.800	-28.912	0.100
718.900	-29.205	0.100
719.000	-5.672	0.100
719.100	-14.193	0.100
719.200	-4.358	0.100
719.300	-33.646	0.100
719.400	-15.533	0.100
719.500	-3.539	0.100
719.600	-14.971	0.100
719.700	-9.087	0.100
719.800	-14.508	0.100
719.900	-14.511	0.100
720.000	-10.198	0.100
720.100	-13.393	0.100
720.200	-27.351	0.100
720.300	-19.548	0.100
720.400	-18.337	0.100
720.500	-13.949	0.101
720.600	-10.793	0.100
720.700	-20.493	0.100
720.800	-13.184	0.100
720.900	-10.576	0.100
721.000	-17.694	0.100
721.100	-7.755	0.100
721.200	-24.077	0.100
721.300	-12.748	0.100
721.400	-12.572	0.100
721.500	-15.987	0.100
721.600	-6.490	0.100
721.700	-18.974	0.100
721.800	-6.373	0.100
721.900	-20.582	0.100
722.000	-10.419	0.100
722.100	-13.849	0.100
722.200	-10.246	0.100
722.300	-12.562	0.100
722.400	-20.567	0.100
722.500	-3.236	0.100
722.600	-13.399	0.100
722.700	-19.423	0.100
722.800	-15.667	0.101
722.900	-8.915	0.100
723.000	-20.358	0.100
723.100	-14.119	0.100
723.200	-13.183	0.100
723.300	-14.716	0.100
723.400	-17.858	0.100
723.500	-15.141	0.100
723.600	-15.857	0.100
723.700	-5.976	0.100
723.800	-7.314	0.100
723.900	-5.162	0.100
724.000	-19.294	0.100
724.100	-20.349	0.100
724.200	-7.984	0.100
724.300	-14.344	0.100
724.400	-11.849	0.100
724.500	-28.465	0.100
724.600	-31.464	0.100
724.700	-5.730	0.100
724.800	-1.057	0.100
724.900	-23.096	0.100
725.000	-13.017	0.100
725.100	-21.200	0.100
725.200	-19.145	0.100
725.300	-11.846	0.100
725.400	-13.636	0.100
725.500	-3.754	0.100
725.600	-17.618	0.100
725.700	-17.281	0.100
725.800	-0.266	0.100
725.900	-15.768	0.100
726.000	-6.216	0.100
726.100	-25.948	0.100
726.200	-1.616	0.100
726.300	-18.845	0.100
726.400	-17.528	0.100
726.500	-3.616	0.100
726.600	-22.334	0.100
726.700	-26.768	0.100
726.800	-17.947	0.101
726.900	-16.619	0.100
727.000	-16.157	0.100
727.100	-26.852	0.100
727.200	-16.159	0.100
727.300	-18.337	0.100
727.400	-0.031	0.100
727.500	-22.279	0.100
727.600	-12.077	0.100
727.700	-18.422	0.100
727.800	0.448	0.100
727.900	-25.340	0.100
728.000	-16.744	0.100
728.100	-10.742	0.100
728.200	-19.511	0.100
728.300	-12.568	0.100
728.400	-17.196	0.100
728.500	-8.877	0.100
728.600	-12.155	0.100
728.700	-20.758	0.100
728.800	-14.446	0.100
728.900	-31.605	0.100
729.000	-23.552	0.100
729.100	-6.280	0.100
729.200	-6.131	0.100
729.300	-14.950	0.100
729.400	-21.970	0.100
729.500	-1.118	0.100
729.600	-12.271	0.100
729.700	-18.785	0.100
729.800	-10.686	0.100
729.900	-8.625	0.100
730.000	-25.419	0.100
730.100	-17.276	0.100
730.200	-22.451	0.100
730.300	-8.143	0.100
730.400	-21.862	0.100
730.500	-16.851	0.100
730.600	-1.946	0.100
730.700	-21.091	0.100
730.800	-26.575	0.100
730.900	-9.055	0.100
731.000	-9.596	0.100
731.100	-15.393	0.100
731.200	-4.869	0.100
731.300	-10.712	0.100
731.400	-18.093	0.100
731.500	-2.745	0.100
731.600	-15.503	0.100
731.700	-6.619	0.100
731.800	-16.355	0.100
731.900	2.469	0.100
732.000	-19.249	0.100
732.100	-9.853	0.100
732.200	-23.374	0.100
732.300	-17.131	0.100
732.400	-12.317	0.100
732.500	-20.522	0.100
732.600	-27.751	0.100
732.700	-16.461	0.100
732.800	-16.816	0.100
732.900	-11.937	0.100
733.000	-1.292	0.100
733.100	-4.492	0.100
733.200	-8.456	0.100
733.300	-11.739	0.100
733.400	-3.516	0.101
733.500	-9.806	0.100
733.600	-24.666	0.100
733.700	-10.930	0.100
733.800	-18.704	0.100
733.900	-5.314	0.100
734.000	-12.017	0.100
734.100	-12.541	0.100
734.200	-19.800	0.100
734.300	-17.148	0.100
734.400	-9.132	0.100
734.500	-9.908	0.100
734.600	-25.804	0.100
734.700	-0.887	0.100
734.800	-11.105	0.100
734.900	-6.661	0.100
735.000	-7.665	0.100
735.100	-13.643	0.100
735.200	-16.602	0.100
735.300	-9.554	0.100
735.400	-20.605	0.100
735.500	-1.851	0.100
735.600	-22.188	0.100
735.700	-10.149	0.100
735.800	-11.390	0.100
735.900	-14.463	0.100
736.000	-19.299	0.100
736.100	-13.000	0.100
736.200	-18.434	0.100
736.300	-7.364	0.100
736.400	-21.864	0.100
736.500	1.120	0.100
736.600	-16.660	0.100
736.700	-7.095	0.100
736.800	-26.584	0.100
736.900	-13.918	0.100
737.000	-11.104	0.100
737.100	-20.854	0.100
737.200	-1.669	0.100
737.300	-16.448	0.100
737.400	-20.258	0.100
737.500	-18.948	0.100
737.600	-10.704	0.100
737.700	-3.062	0.100
737.800	-16.585	0.100
737.900	-15.220	0.100
738.000	-4.870	0.100
738.100	-3.459	0.100
738.200	-22.711	0.100
738.300	-13.852	0.100
738.400	-11.764	0.100
738.500	-0.002	0.100
738.600	-21.199	0.100
738.700	-14.987	0.100
738.800	-6.183	0.100
738.900	-17.128	0.100
739.000	-2.993	0.100
739.100	-10.303	0.101
739.200	-3.114	0.101
739.300	-24.952	0.100
739.400	-26.245	0.100
739.500	-5.837	0.101
739.600	-19.696	0.100
739.700	-17.012	0.101
739.800	-7.766	0.100
739.900	-18.298	0.100
740.000	-7.778	0.100
740.100	-0.723	0.101
740.200	-21.389	0.100
740.300	-13.669	0.100
740.400	-7.789	0.100
740.500	-3.652	0.100
740.600	-11.497	0.100
740.700	-16.415	0.100
740.800	-15.178	0.100
740.900	-6.219	0.100
741.000	-8.600	0.100
741.100	-6.305	0.100
741.200	-17.430	0.100
741.300	-14.290	0.100
741.400	-13.468	0.100
741.500	-5.333	0.100
741.600	-7.720	0.100
741.700	-4.800	0.100
741.800	-23.477	0.100
741.900	-10.253	0.100
742.000	-19.315	0.100
742.100	-5.494	0.100
742.200	-2.290	0.100
742.300	-12.556	0.100
742.400	-17.716	0.100
742.500	-7.415	0.100
742.600	-13.695	0.100
742.700	-24.472	0.100
742.800	-22.764	0.100
742.900	-8.038	0.100
743.000	-5.862	0.100
743.100	-20.355	0.100
743.200	-11.935	0.100
743.300	-15.810	0.100
743.400	-4.488	0.100
743.500	-15.637	0.100
743.600	-9.690	0.100
743.700	-8.209	0.100
743.800	2.325	0.100
743.900	-21.026	0.100
744.000	-4.009	0.100
744.100	-14.858	0.100
744.200	-8.505	0.100
744.300	1.831	0.100
744.400	-34.269	0.100
744.500	-1.457	0.101
744.600	-8.661	0.100
744.700	-8.734	0.100
744.800	-10.458	0.100
744.900	-15.253	0.100
745.000	-10.064	0.100
745.100	-12.570	0.100
745.200	-7.301	0.100
745.300	-10.256	0.100
745.400	-28.878	0.100
745.500	-4.354	0.100
745.600	-3.072	0.100
745.700	-14.915	0.100
745.800	-7.284	0.100
745.900	-16.361	0.100
746.000	-7.789	0.100
746.100	-6.371	0.100
746.200	-13.527	0.100
746.300	-12.555	0.100
746.400	-15.242	0.100
746.500	-11.708	0.100
746.600	-22.694	0.100
746.700	-13.035	0.100
746.800	-17.873	0.100
746.900	-18.233	0.100
747.000	-15.572	0.100
747.100	-21.418	0.100
747.200	-2.178	0.100
747.300	-6.450	0.100
747.400	-4.072	0.100
747.500	-7.258	0.100
747.600	-9.440	0.100
747.700	-19.360	0.100
747.800	-9.604	0.100
747.900	-16.130	0.100
748.000	-14.319	0.100
748.100	-4.713	0.100
748.200	-5.017	0.100
748.300	-12.778	0.100
748.400	-19.960	0.100
748.500	-17.490	0.100
748.600	-10.012	0.100
748.700	-17.979	0.100
748.800	-6.799	0.100
748.900	-22.116	0.100
749.000	-6.432	0.100
749.100	-7.723	0.100
749.200	-10.377	0.100
749.300	-34.355	0.100
749.400	8.212	0.100
749.500	-6.928	0.100
749.600	1.905	0.100
749.700	-15.414	0.100
749.800	-13.928	0.100
749.900	-9.316	0.100
750.000	-13.925	0.100
750.100	-16.887	0.100
750.200	-2.982	0.100
750.300	-5.423	0.100
750.400	-7.475	0.100
750.500	-11.490	0.100
750.600	-22.086	0.100
750.700	-13.336	0.100
750.800	-11.239	0.100
750.900	-7.697	0.100
751.000	-12.396	0.100
751.100	-14.363	0.100
751.200	-1.373	0.100
751.300	-13.314	0.100
751.400	-13.238	0.100
751.500	-2.855	0.100
751.600	-15.665	0.100
751.700	-12.946	0.100
751.800	-13.795	0.100
751.900	-15.053	0.100
752.000	-22.797	0.100
752.100	-23.192	0.100
752.200	-10.610	0.100
752.300	-9.444	0.100
752.400	-13.792	0.100
752.500	-2.601	0.100
752.600	-9.807	0.100
752.700	-12.461	0.100
752.800	-20.550	0.100
752.900	-13.433	0.100
753.000	-22.007	0.100
753.100	-18.470	0.100
753.200	-4.793	0.100
753.300	-12.666	0.100
753.400	-17.538	0.100
753.500	-7.319	0.100
753.600	-5.255	0.100
753.700	-3.029	0.100
753.800	-12.948	0.100
753.900	-19.570	0.100
754.000	-4.983	0.100
754.100	-4.575	0.100
754.200	-26.537	0.100
754.300	-2.134	0.100
754.400	-3.961	0.100
754.500	-3.028	0.100
754.600	-16.640	0.100
754.700	-27.576	0.100
754.800	-3.329	0.100
754.900	-12.355	0.100
755.000	-15.914	0.100
755.100	-6.805	0.100
755.200	-1.190	0.100
755.300	-14.299	0.100
755.400	-25.132	0.100
755.500	-2.417	0.100
755.600	-10.272	0.100
755.700	-9.655	0.100
755.800	-13.172	0.100
755.900	-16.936	0.100
756.000	-13.908	0.100
756.100	-15.947	0.100
756.200	2.381	0.100
756.300	-22.733	0.100
756.400	-11.557	0.100
756.500	-0.656	0.100
756.600	-16.390	0.100
756.700	-9.586	0.100
756.800	-2.086	0.100
756.900	-16.708	0.100
757.000	-0.526	0.100
757.100	-12.288	0.100
757.200	-8.781	0.100
757.300	-5.471	0.100
757.400	-16.724	0.100
757.500	-10.996	0.100
757.600	-0.387	0.100
757.700	-12.607	0.100
757.800	-14.869	0.100
757.900	-8.821	0.100
758.000	-13.456	0.100
758.100	-11.835	0.100
758.200	1.484	0.100
758.300	-10.391	0.100
758.400	-15.418	0.100
758.500	-11.840	0.100
758.600	-6.663	0.100
758.700	-7.205	0.100
758.800	-10.610	0.100
758.900	-13.778	0.100
759.000	-3.843	0.101
759.100	-25.432	0.100
759.200	-23.370	0.100
759.300	-11.948	0.100
759.400	-11.375	0.100
759.500	-18.581	0.100
759.600	-13.415	0.100
759.700	-21.370	0.100
759.800	-8.973	0.100
759.900	-4.672	0.100
760.000	-19.388	0.100
760.100	-6.029	0.100
760.200	-15.682	0.100
760.300	-16.094	0.100
760.400	-13.352	0.100
760.500	-4.965	0.100
760.600	-12.545	0.100
760.700	-17.571	0.100
760.800	1.350	0.101
760.900	-21.302	0.100
761.000	-12.352	0.100
761.100	-13.091	0.100
761.200	-18.634	0.100
761.300	-5.185	0.100
761.400	3.809	0.100
761.500	-20.390	0.100
761.600	-12.151	0.100
761.700	1.618	0.100
761.800	-11.257	0.100
761.900	-8.156	0.100
762.000	-26.177	0.100
762.100	0.504	0.100
762.200	-22.943	0.100
762.300	-4.336	0.100
762.400	-11.394	0.100
762.500	-18.859	0.100
762.600	-24.508	0.100
762.700	-22.736	0.100
762.800	-5.524	0.100
762.900	-8.978	0.100
763.000	-13.865	0.100
763.100	-20.906	0.100
763.200	-2.854	0.100
763.300	-1.533	0.100
763.400	-23.384	0.100
763.500	-0.198	0.100
763.600	-1.725	0.100
763.700	-16.727	0.100
763.800	-19.644	0.100
763.900	-7.853	0.100
764.000	-13.688	0.100
764.100	-10.845	0.100
764.200	-15.753	0.100
764.300	-11.414	0.100
764.400	-15.665	0.100
764.500	-13.180	0.100
764.600	-12.112	0.100
764.700	-20.254	0.100
764.800	-15.796	0.100
764.900	-5.918	0.100
765.000	-8.336	0.100
765.100	-20.855	0.100
765.200	-8.742	0.100
765.300	1.900	0.100
765.400	-16.321	0.100
765.500	-0.579	0.100
765.600	-8.845	0.100
765.700	-10.955	0.100
765.800	-10.365	0.100
765.900	-27.262	0.100
766.000	-25.826	0.100
766.100	-13.322	0.100
766.200	-12.756	0.100
766.300	-5.378	0.100
766.400	-6.018	0.100
766.500	-24.988	0.100
766.600	-7.457	0.100
766.700	-20.920	0.100
766.800	-11.107	0.100
766.900	-21.877	0.100
767.000	0.136	0.100
767.100	-15.976	0.100
767.200	-15.232	0.100
767.300	-11.428	0.100
767.400	-24.932	0.100
767.500	-7.259	0.100
767.600	-18.485	0.100
767.700	-6.903	0.100
767.800	-17.037	0.100
767.900	-6.472	0.100
768.000	-7.942	0.100
768.100	-13.189	0.100
768.200	-18.213	0.100
768.300	-13.603	0.100
768.400	-3.106	0.100
768.500	-16.746	0.100
768.600	-4.670	0.100
768.700	-20.221	0.100
768.800	-2.632	0.100
768.900	-23.146	0.100
769.000	9.765	0.100
769.100	-10.643	0.100
769.200	-14.644	0.100
769.300	-19.550	0.100
769.400	-9.772	0.100
769.500	-14.619	0.100
769.600	-4.685	0.100
769.700	-14.406	0.100
769.800	-16.550	0.100
769.900	-0.615	0.100
770.000	-3.597	0.100
770.100	-1.934	0.100
770.200	-20.666	0.100
770.300	-3.596	0.100
770.400	0.906	0.100
770.500	-8.790	0.100
770.600	-16.715	0.100
770.700	-10.759	0.100
770.800	-14.888	0.100
770.900	-20.566	0.100
771.000	-22.784	0.100
771.100	-0.379	0.100
771.200	15.751	0.100
771.300	-14.480	0.100
771.400	-16.850	0.100
771.500	-11.828	0.100
771.600	-12.642	0.100
771.700	-14.277	0.100
771.800	6.055	0.100
771.900	-24.447	0.100
772.000	-8.037	0.100
772.100	-7.680	0.100
772.200	-11.551	0.100
772.300	3.100	0.100
772.400	-15.467	0.100
772.500	-21.775	0.100
772.600	-16.711	0.100
772.700	-6.286	0.100
772.800	-10.375	0.100
772.900	-9.905	0.100
773.000	-17.373	0.100
773.100	4.244	0.100
773.200	-17.759	0.100
773.300	-12.561	0.100
773.400	-1.024	0.100
773.500	-16.744	0.100
773.600	-15.556	0.100
773.700	-8.878	0.100
773.800	5.202	0.100
773.900	-11.509	0.100
774.000	-13.178	0.100
774.100	-17.545	0.100
774.200	-8.571	0.100
774.300	-9.670	0.100
774.400	-8.151	0.100
774.500	-10.586	0.100
774.600	-16.382	0.100
774.700	-6.657	0.100
774.800	-22.288	0.100
774.900	-9.482	0.100
775.000	-10.670	0.100
775.100	-15.275	0.100
775.200	-23.290	0.100
775.300	-5.922	0.101
775.400	-20.214	0.100
775.500	-4.351	0.100
775.600	-25.722	0.100
775.700	-7.033	0.100
775.800	-2.275	0.100
775.900	-3.679	0.100
776.000	-14.143	0.100
776.100	-21.091	0.100
776.200	-14.329	0.100
776.300	-12.309	0.100
776.400	-8.619	0.100
776.500	-15.751	0.100
776.600	-21.408	0.100
776.700	-10.149	0.100
776.800	-2.898	0.100
776.900	-7.617	0.100
777.000	-12.605	0.100
777.100	-10.891	0.101
777.200	-11.717	0.100
777.300	-14.416	0.100
777.400	-0.094	0.100
777.500	-7.284	0.100
777.600	-2.462	0.100
777.700	-19.473	0.100
777.800	-14.222	0.100
777.900	2.346	0.100
778.000	-26.370	0.100
778.100	-0.216	0.100
778.200	-19.076	0.100
778.300	-9.143	0.100
778.400	-17.845	0.100
778.500	-5.708	0.100
778.600	-14.949	0.100
778.700	-29.000	0.100
778.800	-15.086	0.100
778.900	-13.574	0.100
779.000	-12.454	0.100
779.100	-11.924	0.100
779.200	-4.625	0.100
779.300	-4.890	0.100
779.400	-8.318	0.100
779.500	-10.850	0.100
779.600	-17.533	0.100
779.700	-13.023	0.100
779.800	-18.105	0.100
779.900	-17.900	0.100
780.000	-6.750	0.100
780.100	-17.832	0.100
780.200	-14.539	0.100
780.300	-4.604	0.100
780.400	-6.125	0.101
780.500	-20.270	0.100
780.600	-13.229	0.100
780.700	-9.383	0.100
780.800	1.130	0.100
780.900	-0.160	0.100
781.000	0.831	0.100
781.100	-1.074	0.100
781.200	0.638	0.101
781.300	-2.335	0.100
781.400	-4.554	0.100
781.500	8.896	0.100
781.600	-0.020	0.100
781.700	7.690	0.100
781.800	0.112	0.100
781.900	7.106	0.100
782.000	2.090	0.100
782.100	-2.940	0.100
782.200	8.757	0.100
782.300	-3.637	0.100
782.400	3.169	0.100
782.500	6.120	0.100
782.600	14.274	0.100
782.700	13.244	0.100
782.800	-6.347	0.100
782.900	3.167	0.100
783.000	3.753	0.100
783.100	19.417	0.100
783.200	11.808	0.100
783.300	-10.431	0.100
783.400	5.818	0.100
783.500	13.031	0.100
783.600	-3.528	0.100
783.700	-9.520	0.100
783.800	-2.344	0.100
783.900	5.266	0.100
784.000	1.127	0.100
784.100	21.712	0.100
784.200	0.609	0.100
784.300	6.672	0.100
784.400	12.687	0.100
784.500	4.256	0.100
784.600	17.115	0.101
784.700	7.086	0.100
784.800	-2.936	0.100
784.900	5.460	0.100
785.000	14.069	0.100
785.100	0.695	0.100
785.200	-0.520	0.100
785.300	6.605	0.100
785.400	6.674	0.100
785.500	-0.185	0.100
785.600	4.593	0.100
785.700	4.048	0.100
785.800	-4.708	0.100
785.900	5.254	0.101
786.000	15.728	0.100
786.100	7.596	0.101
786.200	11.876	0.100
786.300	10.948	0.100
786.400	-3.268	0.100
786.500	3.620	0.100
786.600	4.240	0.100
786.700	5.985	0.100
786.800	3.364	0.101
786.900	-7.675	0.100
787.000	20.279	0.101
787.100	6.422	0.100
787.200	23.064	0.100
787.300	8.173	0.100
787.400	0.967	0.100
787.500	6.391	0.100
787.600	9.024	0.100
787.700	16.305	0.100
787.800	12.734	0.100
787.900	2.452	0.100
788.000	6.438	0.100
788.100	10.828	0.100
788.200	15.092	0.100
788.300	-5.750	0.100
788.400	-0.816	0.100
788.500	7.175	0.100
788.600	-7.379	0.100
788.700	7.296	0.100
788.800	3.830	0.100
788.900	10.401	0.100
789.000	16.537	0.100
789.100	8.053	0.101
789.200	1.371	0.100
789.300	6.304	0.100
789.400	7.423	0.100
789.500	5.410	0.100
789.600	4.763	0.100
789.700	11.794	0.100
789.800	-0.797	0.100
789.900	3.481	0.100
790.000	24.083	0.100
790.100	3.021	0.100
790.200	1.710	0.100
790.300	20.045	0.100
790.400	12.573	0.100
790.500	0.972	0.100
790.600	7.116	0.100
790.700	10.166	0.100
790.800	9.120	0.100
790.900	16.063	0.100
791.000	3.468	0.100
791.100	-0.980	0.100
791.200	17.919	0.100
791.300	9.221	0.100
791.400	9.959	0.100
791.500	-1.538	0.100
791.600	16.481	0.100
791.700	3.913	0.100
791.800	21.962	0.100
791.900	13.883	0.100
792.000	16.376	0.100
792.100	12.710	0.100
792.200	14.957	0.100
792.300	28.545	0.100
792.400	18.214	0.100
792.500	6.244	0.100
792.600	-0.234	0.100
792.700	15.023	0.100
792.800	7.036	0.100
792.900	5.096	0.100
793.000	19.435	0.100
793.100	11.486	0.100
793.200	15.120	0.100
793.300	23.612	0.100
793.400	4.139	0.100
793.500	9.450	0.100
793.600	20.961	0.100
793.700	14.639	0.100
793.800	23.865	0.101
793.900	19.826	0.100
794.000	15.567	0.100
794.100	12.272	0.100
794.200	4.261	0.100
794.300	15.016	0.100
794.400	15.794	0.100
794.500	20.621	0.100
794.600	22.360	0.100
794.700	11.651	0.100
794.800	17.203	0.100
794.900	12.737	0.100
795.000	16.615	0.100
795.100	2.104	0.100
795.200	18.141	0.100
795.300	7.324	0.100
795.400	21.632	0.100
795.500	11.054	0.100
795.600	8.181	0.100
795.700	31.073	0.100
795.800	6.563	0.100
795.900	9.788	0.101
796.000	30.174	0.100
796.100	23.757	0.100
796.200	15.022	0.100
796.300	14.973	0.101
796.400	10.669	0.100
796.500	7.462	0.100
796.600	24.107	0.100
796.700	16.402	0.100
796.800	19.285	0.100
796.900	9.216	0.101
797.000	16.684	0.100
797.100	4.120	0.100
797.200	5.105	0.100
797.300	9.735	0.100
797.400	18.476	0.100
797.500	23.460	0.100
797.600	12.926	0.100
797.700	18.707	0.100
797.800	9.646	0.100
797.900	19.072	0.100
798.000	20.592	0.100
798.100	14.575	0.100
798.200	16.291	0.100
798.300	15.091	0.100
798.400	5.615	0.100
798.500	25.127	0.100
798.600	12.911	0.100
798.700	14.713	0.100
798.800	19.517	0.100
798.900	16.138	0.100
799.000	21.824	0.100
799.100	22.417	0.100
799.200	0.165	0.100
799.300	15.715	0.100
799.400	14.203	0.100
799.500	24.087	0.100
799.600	12.612	0.100
799.700	9.754	0.100
799.800	22.252	0.100
799.900	30.587	0.100
800.000	13.445	0.100
