time /s	I /nA	E /V
0.100	-10.957	0.100
0.200	-8.102	0.100
0.300	-16.942	0.100
0.400	-25.592	0.100
0.500	-4.200	0.100
0.600	-5.069	0.100
0.700	-7.007	0.100
0.800	-1.007	0.100
0.900	-14.149	0.100
1.000	-18.226	0.100
1.100	-19.836	0.100
1.200	-6.876	0.100
1.300	-20.693	0.100
1.400	-15.460	0.100
1.500	-15.183	0.100
1.600	-4.651	0.100
1.700	-17.525	0.100
1.800	-15.193	0.100
1.900	-1.185	0.100
2.000	-7.300	0.100
2.100	-15.660	0.100
2.200	-0.395	0.100
2.300	-9.063	0.100
2.400	-0.603	0.100
2.500	-20.347	0.100
2.600	1.582	0.100
2.700	-13.687	0.100
2.800	-4.449	0.100
2.900	-15.787	0.100
3.000	-13.592	0.100
3.100	-5.996	0.100
3.200	5.312	0.100
3.300	-15.558	0.100
3.400	-6.144	0.100
3.500	-12.319	0.100
3.600	-7.549	0.100
3.700	-16.471	0.100
3.800	-24.613	0.100
3.900	-8.312	0.100
4.000	-10.096	0.100
4.100	-11.512	0.100
4.200	-5.037	0.100
4.300	-6.873	0.100
4.400	-20.102	0.100
4.500	-9.998	0.100
4.600	-6.083	0.100
4.700	-0.356	0.100
4.800	-11.141	0.100
4.900	-4.585	0.100
5.000	-12.671	0.100
5.100	-23.285	0.100
5.200	-16.430	0.100
5.300	-8.734	0.100
5.400	5.007	0.100
5.500	-8.307	0.100
5.600	-28.900	0.100
5.700	-3.749	0.100
5.800	-2.395	0.100
5.900	-4.861	0.100
6.000	-4.388	0.100
6.100	-14.846	0.100
6.200	-0.711	0.100
6.300	-9.554	0.100
6.400	-15.079	0.100
6.500	-10.514	0.100
6.600	-5.452	0.100
6.700	2.273	0.100
6.800	-11.691	0.100
6.900	-16.687	0.100
7.000	-15.064	0.100
7.100	-2.461	0.100
7.200	1.468	0.100
7.300	-19.198	0.100
7.400	-11.078	0.100
7.500	-22.422	0.100
7.600	-2.375	0.100
7.700	-16.704	0.100
7.800	-12.435	0.100
7.900	-9.475	0.100
8.000	-6.339	0.100
8.100	-7.396	0.100
8.200	-23.963	0.100
8.300	-3.858	0.100
8.400	-5.107	0.100
8.500	-16.562	0.100
8.600	-13.480	0.100
8.700	-24.675	0.100
8.800	0.262	0.100
8.900	-16.278	0.100
9.000	0.846	0.100
9.100	-12.404	0.100
9.200	-10.559	0.100
9.300	-5.522	0.100
9.400	-6.062	0.100
9.500	-20.145	0.100
9.600	-15.778	0.100
9.700	-11.278	0.100
9.800	-12.291	0.100
9.900	-11.564	0.100
10.000	-9.001	0.100
10.100	-4.318	0.100
10.200	-23.596	0.100
10.300	-15.558	0.100
10.400	-16.595	0.100
10.500	-19.913	0.100
10.600	1.003	0.100
10.700	-8.118	0.100
10.800	-13.633	0.100
10.900	-18.608	0.100
11.000	-8.195	0.100
11.100	-1.062	0.100
11.200	-19.497	0.100
11.300	-0.193	0.100
11.400	-12.218	0.100
11.500	3.783	0.100
11.600	-14.128	0.100
11.700	-12.946	0.100
11.800	-11.819	0.100
11.900	-11.227	0.100
12.000	-12.203	0.100
12.100	-7.167	0.100
12.200	-11.630	0.100
12.300	-1.599	0.100
12.400	-24.625	0.100
12.500	-4.875	0.100
12.600	-2.803	0.100
12.700	-0.318	0.100
12.800	-10.130	0.100
12.900	-6.002	0.100
13.000	-17.427	0.100
13.100	-14.920	0.100
13.200	-23.823	0.100
13.300	-5.923	0.100
13.400	-5.901	0.100
13.500	-5.155	0.100
13.600	-3.331	0.100
13.700	0.738	0.100
13.800	-19.641	0.100
13.900	-9.478	0.100
14.000	-24.167	0.100
14.100	-10.969	0.100
14.200	-11.568	0.100
14.300	-9.324	0.100
14.400	9.332	0.100
14.500	-14.605	0.100
14.600	-18.554	0.100
14.700	-1.936	0.100
14.800	-11.483	0.100
14.900	0.809	0.100
15.000	-17.823	0.100
15.100	-15.889	0.100
15.200	3.322	0.100
15.300	-4.634	0.100
15.400	-4.183	0.100
15.500	-15.360	0.100
15.600	-6.649	0.100
15.700	0.566	0.100
15.800	-8.395	0.100
15.900	-5.189	0.100
16.000	-21.886	0.100
16.100	-16.961	0.100
16.200	-6.559	0.100
16.300	-3.344	0.100
16.400	-1.018	0.100
16.500	-16.074	0.100
16.600	-17.064	0.100
16.700	-6.095	0.100
16.800	-16.778	0.100
16.900	-7.567	0.100
17.000	1.309	0.100
17.100	-7.380	0.100
17.200	-8.372	0.100
17.300	-2.970	0.100
17.400	-9.311	0.100
17.500	-13.456	0.100
17.600	-5.035	0.100
17.700	-20.840	0.100
17.800	-14.597	0.100
17.900	-14.442	0.100
18.000	1.407	0.100
18.100	-16.337	0.100
18.200	8.201	0.100
18.300	-17.587	0.100
18.400	-2.796	0.100
18.500	-14.888	0.100
18.600	-15.238	0.100
18.700	-4.333	0.100
18.800	-19.939	0.100
18.900	-6.456	0.100
19.000	-2.279	0.100
19.100	-2.814	0.100
19.200	0.204	0.100
19.300	-2.655	0.100
19.400	-15.431	0.100
19.500	-12.880	0.100
19.600	-12.564	0.100
19.700	-7.384	0.100
19.800	-14.516	0.100
19.900	-8.513	0.100
20.000	0.268	0.100
20.100	-1.248	0.100
20.200	-17.704	0.100
20.300	-24.466	0.100
20.400	-21.725	0.100
20.500	-8.145	0.100
20.600	-5.633	0.100
20.700	1.403	0.100
20.800	-13.611	0.100
20.900	-16.640	0.100
21.000	-12.847	0.100
21.100	-12.136	0.100
21.200	-18.287	0.100
21.300	-20.436	0.100
21.400	-7.739	0.100
21.500	-4.035	0.100
21.600	-10.886	0.100
21.700	0.031	0.100
21.800	-0.043	0.100
21.900	-17.087	0.100
22.000	-16.735	0.100
22.100	-2.818	0.100
22.200	-1.639	0.100
22.300	-10.818	0.100
22.400	-0.535	0.100
22.500	-11.733	0.100
22.600	-17.110	0.100
22.700	-13.870	0.100
22.800	-20.478	0.100
22.900	1.671	0.100
23.000	-8.773	0.100
23.100	-10.332	0.100
23.200	-9.052	0.100
23.300	0.490	0.100
23.400	0.433	0.100
23.500	-13.371	0.100
23.600	-29.848	0.100
23.700	-13.000	0.100
23.800	-3.764	0.100
23.900	-6.511	0.100
24.000	-4.457	0.100
24.100	-24.152	0.100
24.200	-18.408	0.100
24.300	-1.368	0.100
24.400	-3.798	0.100
24.500	-20.309	0.100
24.600	-10.658	0.100
24.700	-3.698	0.100
24.800	-13.879	0.100
24.900	-9.687	0.101
25.000	-18.491	0.100
25.100	-20.630	0.100
25.200	-9.931	0.100
25.300	-4.424	0.100
25.400	-16.389	0.100
25.500	-0.458	0.100
25.600	-19.035	0.100
25.700	-10.789	0.100
25.800	-0.195	0.100
25.900	-13.177	0.100
26.000	-15.289	0.100
26.100	2.088	0.100
26.200	-6.456	0.100
26.300	-20.179	0.100
26.400	-15.018	0.100
26.500	5.295	0.100
26.600	-7.736	0.100
26.700	-23.540	0.100
26.800	-3.196	0.100
26.900	-14.672	0.100
27.000	-21.869	0.100
27.100	-9.530	0.100
27.200	-2.075	0.100
27.300	-13.759	0.100
27.400	2.846	0.100
27.500	-11.658	0.100
27.600	-19.335	0.100
27.700	-7.669	0.100
27.800	-22.534	0.100
27.900	6.254	0.100
28.000	-12.924	0.100
28.100	-26.475	0.100
28.200	-6.847	0.100
28.300	-9.107	0.100
28.400	-14.902	0.100
28.500	-7.563	0.100
28.600	-18.586	0.100
28.700	-11.103	0.100
28.800	-11.080	0.100
28.900	-8.884	0.100
29.000	-2.128	0.100
29.100	-9.832	0.100
29.200	-18.374	0.100
29.300	-12.763	0.100
29.400	-3.205	0.100
29.500	-6.759	0.100
29.600	-20.844	0.100
29.700	-13.904	0.100
29.800	-9.803	0.100
29.900	-12.249	0.100
30.000	-12.458	0.100
30.100	-1.562	0.100
30.200	-4.866	0.100
30.300	-5.444	0.100
30.400	-4.641	0.100
30.500	-2.826	0.100
30.600	-2.950	0.100
30.700	8.363	0.100
30.800	1.640	0.100
30.900	-3.922	0.100
31.000	6.191	0.100
31.100	-11.028	0.100
31.200	0.889	0.100
31.300	6.512	0.100
31.400	0.967	0.100
31.500	7.902	0.100
31.600	-2.742	0.100
31.700	-1.323	0.100
31.800	5.192	0.100
31.900	13.777	0.100
32.000	18.346	0.100
32.100	6.091	0.100
32.200	10.721	0.100
32.300	-1.342	0.100
32.400	0.091	0.100
32.500	4.844	0.100
32.600	10.619	0.100
32.700	3.151	0.100
32.800	11.868	0.100
32.900	-5.273	0.100
33.000	0.945	0.100
33.100	-1.865	0.100
33.200	-2.318	0.100
33.300	8.096	0.100
33.400	17.062	0.100
33.500	7.506	0.100
33.600	7.230	0.100
33.700	5.615	0.100
33.800	0.873	0.100
33.900	-6.634	0.100
34.000	3.102	0.100
34.100	0.582	0.100
34.200	5.509	0.100
34.300	4.283	0.100
34.400	13.801	0.100
34.500	9.667	0.100
34.600	9.894	0.100
34.700	-7.006	0.100
34.800	-9.900	0.100
34.900	13.398	0.100
35.000	12.120	0.100
35.100	10.220	0.100
35.200	12.351	0.100
35.300	-8.346	0.100
35.400	14.207	0.100
35.500	0.403	0.100
35.600	13.442	0.100
35.700	-1.238	0.100
35.800	-8.021	0.100
35.900	2.879	0.100
36.000	1.790	0.100
36.100	3.587	0.100
36.200	4.015	0.100
36.300	1.821	0.100
36.400	8.136	0.100
36.500	17.677	0.100
36.600	3.842	0.100
36.700	4.691	0.100
36.800	5.142	0.100
36.900	9.895	0.100
37.000	10.403	0.100
37.100	-0.283	0.100
37.200	13.543	0.100
37.300	4.981	0.100
37.400	-0.355	0.100
37.500	10.258	0.100
37.600	13.105	0.100
37.700	6.919	0.100
37.800	16.601	0.100
37.900	1.006	0.100
38.000	8.530	0.100
38.100	2.623	0.100
38.200	25.680	0.100
38.300	8.750	0.100
38.400	15.715	0.100
38.500	15.435	0.100
38.600	3.432	0.100
38.700	14.217	0.100
38.800	3.052	0.100
38.900	3.270	0.100
39.000	19.615	0.100
39.100	15.973	0.100
39.200	7.016	0.100
39.300	-0.264	0.100
39.400	10.940	0.100
39.500	15.066	0.100
39.600	11.437	0.100
39.700	16.310	0.100
39.800	27.854	0.100
39.900	6.595	0.100
40.000	10.346	0.100
40.100	-6.200	0.100
40.200	11.007	0.100
40.300	9.250	0.100
40.400	12.604	0.100
40.500	14.230	0.100
40.600	9.901	0.100
40.700	13.380	0.100
40.800	16.730	0.100
40.900	6.205	0.100
41.000	9.221	0.100
41.100	9.422	0.100
41.200	11.285	0.100
41.300	17.318	0.100
41.400	29.887	0.100
41.500	9.273	0.100
41.600	7.423	0.100
41.700	14.346	0.100
41.800	0.555	0.100
41.900	16.956	0.100
42.000	14.482	0.100
42.100	10.304	0.100
42.200	20.082	0.100
42.300	5.307	0.100
42.400	12.127	0.100
42.500	13.499	0.100
42.600	9.611	0.100
42.700	24.851	0.100
42.800	3.064	0.100
42.900	3.243	0.100
43.000	15.215	0.100
43.100	8.222	0.100
43.200	-0.618	0.100
43.300	21.532	0.100
43.400	7.771	0.100
43.500	14.151	0.100
43.600	16.077	0.100
43.700	-0.217	0.100
43.800	11.082	0.100
43.900	23.375	0.100
44.000	23.730	0.100
44.100	12.123	0.100
44.200	6.542	0.100
44.300	-0.937	0.100
44.400	24.475	0.100
44.500	3.096	0.100
44.600	12.797	0.100
44.700	18.730	0.100
44.800	-2.479	0.100
44.900	10.724	0.100
45.000	6.762	0.100
45.100	13.556	0.100
45.200	14.358	0.100
45.300	8.911	0.100
45.400	13.444	0.100
45.500	17.912	0.100
45.600	14.478	0.100
45.700	17.849	0.100
45.800	17.204	0.100
45.900	21.898	0.100
46.000	5.291	0.100
46.100	17.814	0.100
46.200	10.977	0.100
46.300	22.484	0.100
46.400	7.442	0.100
46.500	8.815	0.100
46.600	7.735	0.100
46.700	32.650	0.100
46.800	23.138	0.100
46.900	-4.686	0.100
47.000	24.003	0.100
47.100	18.051	0.100
47.200	15.759	0.100
47.300	17.691	0.100
47.400	18.501	0.100
47.500	22.831	0.100
47.600	17.808	0.100
47.700	22.314	0.100
47.800	14.214	0.100
47.900	15.172	0.100
48.000	19.332	0.100
48.100	17.232	0.100
48.200	19.500	0.100
48.300	11.282	0.100
48.400	17.798	0.100
48.500	13.007	0.100
48.600	20.785	0.100
48.700	5.161	0.100
48.800	23.092	0.100
48.900	8.985	0.100
49.000	9.647	0.100
49.100	28.527	0.100
49.200	6.103	0.100
49.300	9.834	0.100
49.400	22.945	0.100
49.500	14.531	0.100
49.600	10.354	0.100
49.700	24.181	0.100
49.800	8.612	0.100
49.900	10.509	0.100
50.000	9.627	0.100
50.100	7.635	0.100
50.200	11.410	0.100
50.300	18.789	0.100
50.400	15.104	0.100
50.500	15.518	0.100
50.600	9.810	0.100
50.700	15.501	0.100
50.800	17.680	0.100
50.900	25.171	0.100
51.000	12.178	0.100
51.100	21.439	0.100
51.200	22.343	0.100
51.300	12.872	0.100
51.400	35.646	0.100
51.500	21.175	0.100
51.600	18.227	0.100
51.700	7.530	0.100
51.800	25.580	0.100
51.900	18.813	0.100
52.000	22.865	0.100
52.100	20.795	0.100
52.200	19.138	0.100
52.300	30.219	0.100
52.400	33.844	0.100
52.500	22.765	0.100
52.600	27.100	0.100
52.700	13.904	0.100
52.800	15.793	0.100
52.900	17.505	0.100
53.000	33.051	0.100
53.100	24.148	0.100
53.200	21.803	0.100
53.300	4.015	0.100
53.400	14.516	0.100
53.500	18.178	0.100
53.600	15.706	0.100
53.700	35.871	0.100
53.800	15.566	0.100
53.900	14.343	0.100
54.000	14.113	0.100
54.100	12.529	0.100
54.200	21.794	0.100
54.300	16.670	0.100
54.400	20.367	0.100
54.500	12.206	0.100
54.600	17.286	0.100
54.700	-0.203	0.100
54.800	9.729	0.100
54.900	24.999	0.100
55.000	31.761	0.100
55.100	23.669	0.100
55.200	9.673	0.100
55.300	24.362	0.100
55.400	23.768	0.100
55.500	11.102	0.100
55.600	27.540	0.100
55.700	21.782	0.100
55.800	23.643	0.100
55.900	22.861	0.100
56.000	15.543	0.100
56.100	28.385	0.100
56.200	15.894	0.100
56.300	26.672	0.100
56.400	16.071	0.100
56.500	17.734	0.100
56.600	25.161	0.100
56.700	8.836	0.100
56.800	21.979	0.100
56.900	34.326	0.100
57.000	16.706	0.100
57.100	22.850	0.100
57.200	24.507	0.100
57.300	17.919	0.100
57.400	18.392	0.100
57.500	30.069	0.100
57.600	16.122	0.100
57.700	17.184	0.100
57.800	25.538	0.100
57.900	25.874	0.100
58.000	18.610	0.100
58.100	27.495	0.100
58.200	10.376	0.100
58.300	23.162	0.100
58.400	19.814	0.100
58.500	18.106	0.100
58.600	19.706	0.100
58.700	15.204	0.100
58.800	28.847	0.100
58.900	23.185	0.100
59.000	14.965	0.100
59.100	18.891	0.100
59.200	23.818	0.100
59.300	21.724	0.100
59.400	32.568	0.100
59.500	17.107	0.100
59.600	19.067	0.100
59.700	12.410	0.100
59.800	24.339	0.100
59.900	28.299	0.100
60.000	23.041	0.100
60.100	30.736	0.100
60.200	7.967	0.100
60.300	21.216	0.100
60.400	24.414	0.100
60.500	26.011	0.100
60.600	17.278	0.100
60.700	25.009	0.100
60.800	19.775	0.100
60.900	30.267	0.100
61.000	13.061	0.100
61.100	27.242	0.100
61.200	26.473	0.100
61.300	27.585	0.100
61.400	17.097	0.100
61.500	21.643	0.100
61.600	27.842	0.100
61.700	20.708	0.100
61.800	21.547	0.100
61.900	15.118	0.100
62.000	23.282	0.100
62.100	20.113	0.100
62.200	26.500	0.100
62.300	28.839	0.100
62.400	30.106	0.100
62.500	14.511	0.100
62.600	10.430	0.100
62.700	17.125	0.100
62.800	14.828	0.100
62.900	17.496	0.100
63.000	23.472	0.100
63.100	20.295	0.100
63.200	23.761	0.100
63.300	18.500	0.100
63.400	30.515	0.100
63.500	27.312	0.100
63.600	19.198	0.101
63.700	20.644	0.100
63.800	25.056	0.100
63.900	3.722	0.100
64.000	16.300	0.100
64.100	23.671	0.100
64.200	35.669	0.100
64.300	22.538	0.100
64.400	11.010	0.100
64.500	28.137	0.100
64.600	15.284	0.100
64.700	30.323	0.100
64.800	36.291	0.100
64.900	34.806	0.100
65.000	19.238	0.100
65.100	26.281	0.100
65.200	27.048	0.100
65.300	9.151	0.100
65.400	11.642	0.100
65.500	25.201	0.100
65.600	25.949	0.100
65.700	34.140	0.100
65.800	24.757	0.100
65.900	22.925	0.100
66.000	29.241	0.100
66.100	23.349	0.100
66.200	16.728	0.100
66.300	31.432	0.100
66.400	17.919	0.100
66.500	14.389	0.100
66.600	28.966	0.100
66.700	15.762	0.100
66.800	30.166	0.100
66.900	12.597	0.100
67.000	28.435	0.100
67.100	27.810	0.100
67.200	9.525	0.100
67.300	13.604	0.100
67.400	11.852	0.100
67.500	26.274	0.100
67.600	28.210	0.100
67.700	26.960	0.100
67.800	46.052	0.100
67.900	19.489	0.100
68.000	31.461	0.100
68.100	27.598	0.100
68.200	37.016	0.100
68.300	24.680	0.100
68.400	14.622	0.100
68.500	33.957	0.100
68.600	20.081	0.100
68.700	29.534	0.100
68.800	24.219	0.100
68.900	21.490	0.100
69.000	27.175	0.100
69.100	18.048	0.100
69.200	39.985	0.100
69.300	23.121	0.100
69.400	30.997	0.100
69.500	28.551	0.100
69.600	20.881	0.100
69.700	24.193	0.100
69.800	18.149	0.100
69.900	31.550	0.100
70.000	28.871	0.100
70.100	24.735	0.100
70.200	15.506	0.100
70.300	23.191	0.100
70.400	30.703	0.100
70.500	34.523	0.100
70.600	21.778	0.100
70.700	30.462	0.100
70.800	20.252	0.100
70.900	15.552	0.100
71.000	47.005	0.100
71.100	9.051	0.100
71.200	30.643	0.100
71.300	23.654	0.101
71.400	24.013	0.100
71.500	32.256	0.100
71.600	29.206	0.100
71.700	25.145	0.100
71.800	23.393	0.100
71.900	29.917	0.100
72.000	22.555	0.100
72.100	27.359	0.100
72.200	28.912	0.100
72.300	16.507	0.100
72.400	30.631	0.100
72.500	26.318	0.100
72.600	24.353	0.100
72.700	30.449	0.100
72.800	32.757	0.100
72.900	22.691	0.100
73.000	18.299	0.100
73.100	20.168	0.100
73.200	26.600	0.100
73.300	46.181	0.100
73.400	22.239	0.100
73.500	15.063	0.100
73.600	36.254	0.100
73.700	15.831	0.100
73.800	30.569	0.100
73.900	38.012	0.100
74.000	31.950	0.100
74.100	13.064	0.101
74.200	31.826	0.100
74.300	43.453	0.100
74.400	31.472	0.100
74.500	27.940	0.100
74.600	21.777	0.100
74.700	25.720	0.100
74.800	28.482	0.101
74.900	18.334	0.100
75.000	41.781	0.100
75.100	29.362	0.101
75.200	24.985	0.100
75.300	19.049	0.100
75.400	30.676	0.100
75.500	16.682	0.100
75.600	30.606	0.100
75.700	33.135	0.100
75.800	18.295	0.100
75.900	37.108	0.100
76.000	5.742	0.100
76.100	30.514	0.100
76.200	24.470	0.100
76.300	29.547	0.100
76.400	6.453	0.100
76.500	26.453	0.100
76.600	33.621	0.100
76.700	24.518	0.100
76.800	38.714	0.100
76.900	19.845	0.101
77.000	27.742	0.100
77.100	27.557	0.100
77.200	35.033	0.100
77.300	23.363	0.100
77.400	24.306	0.100
77.500	33.476	0.100
77.600	26.680	0.100
77.700	29.464	0.100
77.800	22.281	0.101
77.900	14.425	0.100
78.000	48.708	0.100
78.100	25.799	0.100
78.200	38.675	0.100
78.300	17.689	0.100
78.400	29.269	0.100
78.500	19.710	0.100
78.600	30.985	0.100
78.700	31.049	0.100
78.800	26.440	0.100
78.900	29.306	0.100
79.000	28.967	0.100
79.100	22.365	0.100
79.200	23.502	0.101
79.300	31.028	0.100
79.400	24.366	0.100
79.500	16.833	0.100
79.600	19.753	0.100
79.700	30.790	0.100
79.800	26.053	0.100
79.900	29.668	0.100
80.000	21.858	0.100
80.100	13.464	0.100
80.200	26.169	0.100
80.300	38.487	0.100
80.400	38.198	0.100
80.500	24.583	0.100
80.600	25.611	0.100
80.700	21.343	0.100
80.800	25.438	0.100
80.900	25.138	0.100
81.000	39.191	0.100
81.100	32.549	0.100
81.200	27.291	0.100
81.300	35.204	0.100
81.400	26.461	0.100
81.500	31.549	0.100
81.600	24.972	0.100
81.700	35.028	0.100
81.800	36.361	0.100
81.900	18.731	0.100
82.000	25.364	0.100
82.100	37.504	0.100
82.200	37.268	0.100
82.300	14.184	0.100
82.400	38.873	0.100
82.500	28.975	0.100
82.600	20.266	0.100
82.700	11.302	0.100
82.800	35.569	0.100
82.900	25.681	0.100
83.000	29.980	0.100
83.100	36.443	0.100
83.200	29.455	0.100
83.300	39.297	0.100
83.400	28.564	0.100
83.500	15.804	0.100
83.600	26.659	0.100
83.700	30.155	0.100
83.800	35.137	0.100
83.900	15.034	0.100
84.000	33.332	0.100
84.100	24.863	0.100
84.200	28.825	0.100
84.300	29.621	0.100
84.400	37.764	0.100
84.500	23.729	0.100
84.600	21.331	0.100
84.700	20.996	0.100
84.800	31.512	0.100
84.900	23.683	0.100
85.000	16.923	0.100
85.100	39.718	0.100
85.200	39.562	0.100
85.300	27.200	0.100
85.400	18.299	0.101
85.500	35.493	0.100
85.600	36.502	0.100
85.700	20.065	0.100
85.800	21.674	0.100
85.900	14.856	0.100
86.000	35.623	0.100
86.100	30.569	0.100
86.200	43.206	0.100
86.300	31.465	0.100
86.400	25.588	0.100
86.500	37.072	0.100
86.600	38.628	0.100
86.700	22.769	0.100
86.800	28.068	0.100
86.900	26.433	0.100
87.000	38.166	0.100
87.100	37.989	0.100
87.200	26.399	0.100
87.300	8.577	0.100
87.400	27.774	0.100
87.500	35.900	0.100
87.600	26.764	0.100
87.700	23.237	0.100
87.800	15.938	0.100
87.900	30.665	0.100
88.000	32.289	0.100
88.100	39.199	0.100
88.200	39.429	0.100
88.300	27.387	0.100
88.400	23.012	0.100
88.500	27.304	0.100
88.600	37.109	0.100
88.700	21.156	0.100
88.800	37.380	0.100
88.900	28.861	0.100
89.000	16.728	0.100
89.100	33.413	0.100
89.200	30.048	0.100
89.300	29.341	0.100
89.400	31.230	0.100
89.500	26.538	0.100
89.600	37.955	0.100
89.700	20.858	0.100
89.800	32.523	0.100
89.900	33.688	0.100
90.000	27.234	0.100
90.100	31.983	0.100
90.200	28.564	0.100
90.300	9.450	0.100
90.400	37.543	0.100
90.500	14.907	0.100
90.600	28.300	0.100
90.700	31.551	0.100
90.800	11.638	0.100
90.900	30.396	0.100
91.000	25.541	0.100
91.100	31.838	0.100
91.200	9.603	0.100
91.300	23.065	0.100
91.400	20.012	0.100
91.500	9.696	0.100
91.600	15.586	0.100
91.700	11.288	0.100
91.800	11.433	0.100
91.900	22.981	0.100
92.000	15.273	0.100
92.100	4.169	0.100
92.200	-9.888	0.100
92.300	16.624	0.100
92.400	-3.761	0.100
92.500	8.611	0.100
92.600	14.291	0.100
92.700	-12.590	0.100
92.800	-9.754	0.100
92.900	-15.856	0.100
93.000	-0.134	0.100
93.100	0.062	0.100
93.200	-3.228	0.100
93.300	0.194	0.100
93.400	-10.201	0.100
93.500	-6.264	0.100
93.600	9.845	0.100
93.700	2.944	0.100
93.800	9.640	0.100
93.900	-14.585	0.100
94.000	-0.110	0.100
94.100	-5.680	0.100
94.200	-13.356	0.100
94.300	-7.492	0.100
94.400	0.498	0.100
94.500	-3.698	0.100
94.600	-14.943	0.100
94.700	12.865	0.100
94.800	-7.546	0.100
94.900	-4.491	0.100
95.000	-8.635	0.100
95.100	-8.267	0.100
95.200	-18.742	0.100
95.300	6.305	0.100
95.400	-12.039	0.100
95.500	-3.604	0.100
95.600	-13.283	0.100
95.700	-16.272	0.100
95.800	-5.019	0.100
95.900	-3.645	0.100
96.000	-8.279	0.100
96.100	-17.370	0.100
96.200	-9.449	0.100
96.300	-13.507	0.100
96.400	-3.372	0.100
96.500	-3.630	0.100
96.600	4.915	0.100
96.700	-5.902	0.100
96.800	-10.714	0.100
96.900	-13.781	0.100
97.000	-11.535	0.100
97.100	8.370	0.100
97.200	-5.380	0.100
97.300	-13.201	0.100
97.400	-12.446	0.100
97.500	-9.789	0.100
97.600	-23.186	0.100
97.700	-3.279	0.100
97.800	-6.570	0.100
97.900	-0.649	0.100
98.000	-8.554	0.100
98.100	-5.697	0.100
98.200	-18.530	0.100
98.300	-11.867	0.100
98.400	4.853	0.100
98.500	-12.584	0.100
98.600	-12.738	0.100
98.700	-6.618	0.100
98.800	-7.035	0.100
98.900	-10.626	0.101
99.000	-21.014	0.100
99.100	-16.939	0.100
99.200	-10.015	0.100
99.300	-8.023	0.101
99.400	-25.759	0.100
99.500	-24.656	0.100
99.600	-9.902	0.100
99.700	-14.453	0.100
99.800	-11.896	0.100
99.900	-7.886	0.100
100.000	1.900	0.101
100.100	-9.003	0.100
100.200	-11.771	0.100
100.300	-2.308	0.100
100.400	-30.754	0.100
100.500	-11.378	0.100
100.600	-14.740	0.100
100.700	-16.509	0.100
100.800	-13.620	0.100
100.900	-12.890	0.100
101.000	3.252	0.100
101.100	-15.489	0.100
101.200	-19.832	0.100
101.300	-11.556	0.100
101.400	-16.896	0.100
101.500	-19.190	0.100
101.600	-10.748	0.100
101.700	-6.396	0.100
101.800	-8.044	0.100
101.900	-11.371	0.100
102.000	-16.850	0.100
102.100	-10.825	0.100
102.200	-17.075	0.100
102.300	-12.048	0.100
102.400	3.408	0.100
102.500	-15.490	0.100
102.600	-13.237	0.100
102.700	-28.884	0.100
102.800	5.791	0.100
102.900	-4.729	0.100
103.000	-25.581	0.100
103.100	-9.963	0.100
103.200	-16.850	0.100
103.300	-12.349	0.100
103.400	-11.364	0.100
103.500	-13.472	0.100
103.600	-6.323	0.100
103.700	-10.073	0.100
103.800	-18.248	0.100
103.900	-10.673	0.100
104.000	-17.617	0.100
104.100	-14.272	0.100
104.200	-13.997	0.100
104.300	-10.417	0.100
104.400	-8.385	0.100
104.500	-19.546	0.100
104.600	-2.446	0.100
104.700	-10.834	0.100
104.800	-17.444	0.100
104.900	-9.467	0.100
105.000	-15.471	0.100
105.100	-23.908	0.100
105.200	-20.435	0.100
105.300	-13.476	0.100
105.400	-16.039	0.100
105.500	-17.873	0.100
105.600	-10.826	0.100
105.700	-18.351	0.100
105.800	-19.013	0.100
105.900	-3.637	0.100
106.000	-15.586	0.100
106.100	-7.096	0.100
106.200	-13.671	0.100
106.300	-17.972	0.100
106.400	-21.297	0.100
106.500	-9.137	0.100
106.600	-1.568	0.100
106.700	-17.761	0.100
106.800	-14.575	0.100
106.900	-19.668	0.100
107.000	-18.643	0.100
107.100	-17.606	0.100
107.200	-10.410	0.100
107.300	-9.457	0.100
107.400	-11.685	0.100
107.500	-18.570	0.100
107.600	-13.963	0.100
107.700	-15.108	0.100
107.800	4.286	0.100
107.900	-12.995	0.100
108.000	-12.832	0.100
108.100	-19.847	0.100
108.200	-18.809	0.100
108.300	-14.596	0.100
108.400	-13.960	0.100
108.500	-21.299	0.100
108.600	-5.171	0.100
108.700	-17.893	0.100
108.800	-23.862	0.100
108.900	-6.923	0.100
109.000	-14.488	0.100
109.100	-12.252	0.100
109.200	-12.172	0.100
109.300	-18.835	0.100
109.400	-10.421	0.100
109.500	-18.648	0.100
109.600	-8.098	0.100
109.700	-17.604	0.100
109.800	-20.939	0.100
109.900	-16.518	0.100
110.000	-10.990	0.100
110.100	-32.070	0.100
110.200	-16.231	0.100
110.300	-0.674	0.100
110.400	-19.109	0.100
110.500	2.531	0.100
110.600	-22.542	0.100
110.700	-14.923	0.100
110.800	-22.970	0.100
110.900	-14.081	0.100
111.000	-11.420	0.100
111.100	-13.510	0.100
111.200	-13.218	0.100
111.300	-25.592	0.100
111.400	-4.392	0.100
111.500	-20.732	0.100
111.600	-27.919	0.100
111.700	-14.213	0.100
111.800	-11.012	0.100
111.900	-9.179	0.100
112.000	-8.022	0.100
112.100	-12.522	0.100
112.200	-27.008	0.100
112.300	-17.126	0.100
112.400	-11.269	0.100
112.500	-15.402	0.100
112.600	-20.793	0.100
112.700	-13.450	0.100
112.800	-19.801	0.100
112.900	-13.602	0.100
113.000	-18.995	0.100
113.100	-16.048	0.100
113.200	-17.238	0.100
113.300	-1.424	0.100
113.400	-11.814	0.100
113.500	-8.421	0.100
113.600	-19.088	0.100
113.700	-7.598	0.100
113.800	-26.904	0.100
113.900	-15.113	0.100
114.000	-12.280	0.100
114.100	-14.858	0.100
114.200	-21.813	0.100
114.300	-10.773	0.100
114.400	-18.438	0.100
114.500	-9.613	0.100
114.600	-28.384	0.100
114.700	-3.076	0.100
114.800	-20.699	0.100
114.900	-16.414	0.100
115.000	-15.986	0.100
115.100	-14.021	0.100
115.200	-13.639	0.100
115.300	-12.244	0.100
115.400	-12.136	0.100
115.500	-15.367	0.100
115.600	-30.183	0.100
115.700	-7.396	0.100
115.800	-14.000	0.100
115.900	-4.490	0.100
116.000	-19.117	0.100
116.100	-12.330	0.100
116.200	-22.739	0.100
116.300	-17.314	0.100
116.400	-11.328	0.100
116.500	-15.316	0.100
116.600	-23.772	0.100
116.700	-7.051	0.100
116.800	-30.884	0.100
116.900	-6.126	0.100
117.000	-18.113	0.100
117.100	-12.289	0.100
117.200	-11.774	0.100
117.300	-12.612	0.100
117.400	-24.290	0.100
117.500	-23.877	0.100
117.600	-19.298	0.100
117.700	-21.305	0.100
117.800	-11.487	0.100
117.900	-22.196	0.100
118.000	-14.560	0.100
118.100	-9.744	0.100
118.200	-14.797	0.100
118.300	-18.143	0.100
118.400	-21.212	0.100
118.500	-14.588	0.100
118.600	-16.900	0.100
118.700	-7.007	0.100
118.800	-28.561	0.100
118.900	-14.457	0.100
119.000	-6.954	0.100
119.100	-15.299	0.100
119.200	-13.924	0.100
119.300	-21.412	0.100
119.400	-16.908	0.100
119.500	-20.975	0.100
119.600	-19.095	0.100
119.700	-12.922	0.100
119.800	-20.115	0.100
119.900	-17.714	0.100
120.000	-20.541	0.100
120.100	-17.337	0.100
120.200	-19.811	0.100
120.300	-10.141	0.100
120.400	-21.045	0.100
120.500	-7.186	0.100
120.600	-16.065	0.100
120.700	-18.601	0.100
120.800	-18.461	0.100
120.900	-15.683	0.100
121.000	-1.316	0.100
121.100	-13.436	0.100
121.200	-31.778	0.100
121.300	-19.107	0.100
121.400	-9.688	0.100
121.500	-21.885	0.100
121.600	-17.936	0.100
121.700	-13.707	0.100
121.800	-9.748	0.100
121.900	-17.953	0.100
122.000	-9.301	0.100
122.100	-7.005	0.100
122.200	-12.518	0.100
122.300	-15.664	0.100
122.400	-22.475	0.100
122.500	-14.779	0.100
122.600	-24.039	0.100
122.700	-20.547	0.100
122.800	-21.774	0.100
122.900	-17.620	0.100
123.000	-12.699	0.100
123.100	-24.504	0.100
123.200	-10.820	0.100
123.300	-10.811	0.100
123.400	-21.959	0.100
123.500	-7.460	0.100
123.600	1.332	0.100
123.700	-19.880	0.100
123.800	-19.180	0.100
123.900	-19.199	0.100
124.000	-10.204	0.100
124.100	-5.126	0.100
124.200	-11.942	0.100
124.300	-24.243	0.100
124.400	-16.906	0.100
124.500	-8.614	0.100
124.600	-9.096	0.100
124.700	-19.232	0.100
124.800	-29.281	0.100
124.900	-20.374	0.100
125.000	-21.107	0.100
125.100	-8.780	0.100
125.200	-16.729	0.100
125.300	-17.174	0.100
125.400	-0.043	0.100
125.500	-27.863	0.100
125.600	-25.659	0.100
125.700	-11.739	0.100
125.800	-5.282	0.100
125.900	-6.273	0.100
126.000	-12.503	0.100
126.100	-14.214	0.100
126.200	-9.052	0.100
126.300	-18.194	0.100
126.400	-9.401	0.100
126.500	-19.112	0.100
126.600	-26.670	0.100
126.700	-19.314	0.100
126.800	-23.142	0.100
126.900	-11.776	0.100
127.000	-18.460	0.100
127.100	-6.104	0.100
127.200	-8.775	0.100
127.300	-13.316	0.100
127.400	-13.423	0.100
127.500	-17.964	0.100
127.600	-10.696	0.100
127.700	-7.550	0.100
127.800	-17.933	0.100
127.900	-18.998	0.100
128.000	-27.743	0.100
128.100	-7.296	0.100
128.200	-10.331	0.100
128.300	-17.977	0.100
128.400	-14.982	0.100
128.500	-14.797	0.100
128.600	-9.681	0.100
128.700	-20.930	0.100
128.800	-21.794	0.100
128.900	-16.626	0.100
129.000	-9.919	0.100
129.100	-19.173	0.100
129.200	-15.280	0.100
129.300	-23.645	0.100
129.400	-18.498	0.100
129.500	-25.888	0.100
129.600	-2.390	0.100
129.700	-5.749	0.100
129.800	-13.875	0.100
129.900	-5.374	0.100
130.000	-14.460	0.100
130.100	-8.781	0.100
130.200	-18.948	0.100
130.300	-15.960	0.100
130.400	-15.516	0.100
130.500	-11.313	0.100
130.600	-17.809	0.100
130.700	-15.592	0.100
130.800	-25.687	0.100
130.900	-21.906	0.100
131.000	-13.307	0.100
131.100	-25.736	0.100
131.200	-11.916	0.100
131.300	-7.685	0.100
131.400	-21.082	0.100
131.500	-13.176	0.100
131.600	-8.195	0.100
131.700	-19.859	0.100
131.800	-16.100	0.100
131.900	-19.857	0.100
132.000	4.653	0.100
132.100	-11.256	0.100
132.200	-5.127	0.100
132.300	-19.955	0.100
132.400	-2.640	0.100
132.500	-12.688	0.100
132.600	-20.781	0.100
132.700	1.410	0.100
132.800	-18.257	0.100
132.900	-7.028	0.100
133.000	-19.753	0.100
133.100	-27.439	0.100
133.200	-6.177	0.100
133.300	-11.216	0.100
133.400	-20.514	0.100
133.500	-13.533	0.100
133.600	-3.535	0.100
133.700	-15.743	0.100
133.800	-18.349	0.100
133.900	-21.954	0.100
134.000	-12.770	0.100
134.100	-19.613	0.100
134.200	0.276	0.100
134.300	-15.419	0.100
134.400	-29.999	0.100
134.500	-0.272	0.100
134.600	-14.285	0.100
134.700	-10.291	0.100
134.800	-5.015	0.100
134.900	-6.408	0.100
135.000	-7.811	0.100
135.100	-14.289	0.100
135.200	-15.236	0.100
135.300	-17.151	0.100
135.400	-22.717	0.100
135.500	-6.757	0.100
135.600	-24.741	0.100
135.700	-9.568	0.100
135.800	-16.346	0.100
135.900	-7.813	0.100
136.000	-15.243	0.100
136.100	-4.426	0.100
136.200	-18.685	0.100
136.300	-16.268	0.100
136.400	-12.140	0.100
136.500	-16.860	0.100
136.600	-12.192	0.100
136.700	-18.070	0.100
136.800	-9.195	0.100
136.900	-18.012	0.100
137.000	-5.248	0.100
137.100	-16.711	0.100
137.200	0.047	0.100
137.300	-15.554	0.100
137.400	-3.521	0.100
137.500	-18.285	0.100
137.600	-28.430	0.100
137.700	-4.156	0.100
137.800	-8.890	0.100
137.900	-17.736	0.100
138.000	-14.888	0.100
138.100	-6.134	0.100
138.200	-5.885	0.100
138.300	-13.246	0.100
138.400	0.364	0.100
138.500	-22.485	0.100
138.600	-18.293	0.100
138.700	-21.396	0.100
138.800	-8.461	0.100
138.900	-4.116	0.100
139.000	-15.241	0.100
139.100	-11.040	0.100
139.200	-0.473	0.100
139.300	-12.171	0.100
139.400	-19.707	0.100
139.500	-13.031	0.100
139.600	-9.959	0.100
139.700	-22.339	0.100
139.800	-17.084	0.100
139.900	-5.888	0.100
140.000	-23.988	0.100
140.100	-2.076	0.100
140.200	-21.061	0.100
140.300	-23.337	0.100
140.400	10.532	0.100
140.500	-19.071	0.100
140.600	-14.257	0.100
140.700	-10.852	0.100
140.800	-12.837	0.100
140.900	-21.721	0.100
141.000	-13.949	0.100
141.100	-20.709	0.100
141.200	-5.750	0.100
141.300	-15.146	0.100
141.400	-9.029	0.100
141.500	-12.695	0.100
141.600	-14.026	0.100
141.700	-10.623	0.100
141.800	-15.449	0.100
141.900	-7.619	0.100
142.000	-13.999	0.100
142.100	-10.037	0.100
142.200	-22.546	0.100
142.300	-28.705	0.100
142.400	-8.223	0.100
142.500	-15.531	0.100
142.600	-13.507	0.100
142.700	-19.480	0.100
142.800	-16.081	0.100
142.900	-18.666	0.100
143.000	-17.986	0.100
143.100	-0.813	0.100
143.200	-23.170	0.100
143.300	-0.328	0.100
143.400	-1.562	0.100
143.500	-25.582	0.100
143.600	-19.538	0.100
143.700	-5.878	0.100
143.800	-12.080	0.100
143.900	-4.548	0.100
144.000	-18.114	0.100
144.100	-13.215	0.100
144.200	-10.429	0.100
144.300	-9.479	0.100
144.400	-23.595	0.100
144.500	-15.668	0.100
144.600	-21.886	0.100
144.700	-7.059	0.100
144.800	-19.554	0.100
144.900	-3.375	0.100
145.000	-22.587	0.100
145.100	-7.559	0.100
145.200	-15.887	0.100
145.300	-14.926	0.100
145.400	-3.281	0.100
145.500	-18.182	0.100
145.600	-26.202	0.100
145.700	-15.593	0.100
145.800	-13.080	0.100
145.900	-12.445	0.100
146.000	-7.753	0.100
146.100	-2.049	0.100
146.200	-0.652	0.100
146.300	-28.606	0.100
146.400	-11.660	0.100
146.500	-4.955	0.100
146.600	-10.239	0.100
146.700	-8.859	0.100
146.800	-14.512	0.100
146.900	-7.153	0.100
147.000	-7.920	0.100
147.100	-4.835	0.100
147.200	-28.180	0.100
147.300	-20.569	0.100
147.400	-6.858	0.100
147.500	-25.553	0.100
147.600	-19.232	0.100
147.700	-3.449	0.100
147.800	-10.512	0.100
147.900	-30.885	0.100
148.000	-14.163	0.100
148.100	-12.808	0.100
148.200	-9.503	0.100
148.300	-15.020	0.100
148.400	-16.572	0.100
148.500	-7.390	0.100
148.600	-16.223	0.100
148.700	-11.312	0.100
148.800	-17.616	0.100
148.900	-7.875	0.100
149.000	-16.611	0.100
149.100	-6.712	0.100
149.200	-12.260	0.100
149.300	-6.316	0.100
149.400	-22.972	0.100
149.500	-21.401	0.100
149.600	-15.297	0.100
149.700	-6.892	0.100
149.800	-8.528	0.100
149.900	-18.042	0.100
150.000	-12.379	0.100
150.100	-11.821	0.100
150.200	-18.043	0.100
150.300	-11.062	0.100
150.400	-11.073	0.100
150.500	-14.550	0.100
150.600	-12.061	0.100
150.700	-0.003	0.100
150.800	-16.947	0.100
150.900	-11.905	0.100
151.000	-17.997	0.100
151.100	-14.148	0.100
151.200	-19.004	0.100
151.300	-5.239	0.100
151.400	-10.547	0.100
151.500	-13.336	0.100
151.600	-14.525	0.100
151.700	-9.729	0.100
151.800	-10.718	0.100
151.900	-4.028	0.100
152.000	-12.997	0.100
152.100	-8.751	0.100
152.200	-6.555	0.100
152.300	-17.949	0.100
152.400	-3.086	0.100
152.500	-22.680	0.100
152.600	-19.990	0.100
152.700	-7.052	0.100
152.800	-23.596	0.100
152.900	-18.144	0.100
153.000	-9.819	0.100
153.100	4.074	0.100
153.200	-23.916	0.100
153.300	-6.452	0.100
153.400	-9.970	0.100
153.500	-24.959	0.100
153.600	-9.811	0.100
153.700	-13.806	0.100
153.800	-22.879	0.100
153.900	-10.196	0.100
154.000	-11.332	0.100
154.100	-10.849	0.100
154.200	-21.041	0.100
154.300	-12.448	0.100
154.400	-1.874	0.100
154.500	-22.086	0.100
154.600	-5.906	0.100
154.700	-36.093	0.100
154.800	-19.738	0.100
154.900	-10.332	0.100
155.000	-23.766	0.100
155.100	-8.455	0.100
155.200	-11.230	0.100
155.300	-4.436	0.100
155.400	-12.133	0.100
155.500	-20.243	0.100
155.600	-17.062	0.100
155.700	-11.084	0.100
155.800	-15.526	0.100
155.900	-18.426	0.100
156.000	-21.177	0.100
156.100	-8.436	0.100
156.200	-9.971	0.100
156.300	-9.734	0.100
156.400	-5.185	0.100
156.500	-12.452	0.100
156.600	-13.790	0.100
156.700	-19.267	0.100
156.800	-16.687	0.100
156.900	-11.776	0.100
157.000	-5.304	0.100
157.100	-19.005	0.100
157.200	-8.191	0.100
157.300	-18.039	0.100
157.400	-5.728	0.100
157.500	1.803	0.100
157.600	-11.052	0.100
157.700	-18.099	0.100
157.800	-19.451	0.100
157.900	-15.770	0.100
158.000	-3.078	0.100
158.100	3.004	0.100
158.200	-6.424	0.100
158.300	-14.391	0.100
158.400	-14.732	0.100
158.500	-8.917	0.100
158.600	-5.306	0.100
158.700	-5.641	0.100
158.800	-15.284	0.100
158.900	-10.134	0.100
159.000	-20.728	0.100
159.100	-14.604	0.100
159.200	-20.612	0.100
159.300	-15.843	0.100
159.400	-12.191	0.100
159.500	-17.662	0.100
159.600	8.117	0.100
159.700	-17.494	0.100
159.800	-4.597	0.100
159.900	-15.358	0.100
160.000	-16.772	0.100
160.100	-6.479	0.100
160.200	-26.913	0.100
160.300	-1.214	0.100
160.400	-17.829	0.100
160.500	-8.754	0.100
160.600	-12.004	0.100
160.700	-12.238	0.100
160.800	-10.303	0.100
160.900	-18.001	0.100
161.000	-2.651	0.100
161.100	-9.320	0.100
161.200	-13.420	0.100
161.300	-2.139	0.100
161.400	-17.374	0.100
161.500	-11.731	0.100
161.600	5.655	0.100
161.700	-14.236	0.100
161.800	-6.441	0.100
161.900	-9.274	0.100
162.000	-16.925	0.100
162.100	-24.054	0.100
162.200	-7.860	0.100
162.300	-0.024	0.100
162.400	-24.457	0.100
162.500	-7.530	0.100
162.600	-14.248	0.100
162.700	-2.629	0.100
162.800	-10.434	0.100
162.900	-7.634	0.100
163.000	-14.314	0.100
163.100	-20.011	0.100
163.200	-16.737	0.100
163.300	-3.212	0.100
163.400	-13.649	0.100
163.500	-4.114	0.100
163.600	-9.605	0.100
163.700	-18.643	0.100
163.800	-3.305	0.100
163.900	-9.476	0.100
164.000	-15.102	0.100
164.100	-12.659	0.100
164.200	-2.875	0.100
164.300	-14.175	0.100
164.400	-21.816	0.100
164.500	-6.492	0.100
164.600	-9.989	0.100
164.700	-7.720	0.100
164.800	-22.253	0.100
164.900	-6.007	0.100
165.000	2.297	0.100
165.100	-7.280	0.100
165.200	-21.710	0.100
165.300	-2.084	0.100
165.400	-12.038	0.100
165.500	-5.214	0.100
165.600	-14.168	0.100
165.700	-13.385	0.100
165.800	-18.035	0.100
165.900	-3.175	0.100
166.000	-15.145	0.100
166.100	-14.061	0.100
166.200	-21.466	0.100
166.300	-12.628	0.100
166.400	-8.412	0.100
166.500	-8.027	0.100
166.600	-13.842	0.100
166.700	-13.857	0.100
166.800	-5.368	0.100
166.900	0.312	0.100
167.000	-3.987	0.100
167.100	-14.873	0.100
167.200	-14.038	0.100
167.300	-8.545	0.100
167.400	-11.855	0.100
167.500	-6.464	0.100
167.600	-13.238	0.100
167.700	-3.826	0.100
167.800	-7.285	0.100
167.900	-8.572	0.100
168.000	-17.189	0.100
168.100	-8.051	0.100
168.200	-8.471	0.100
168.300	-11.496	0.100
168.400	-0.327	0.100
168.500	-6.784	0.100
168.600	-7.754	0.100
168.700	-10.988	0.100
168.800	-18.589	0.100
168.900	4.588	0.100
169.000	-4.816	0.100
169.100	-4.203	0.100
169.200	-13.748	0.100
169.300	-3.653	0.100
169.400	6.414	0.100
169.500	-12.209	0.100
169.600	-1.077	0.100
169.700	-16.024	0.100
169.800	-6.231	0.100
169.900	-24.754	0.100
170.000	-8.171	0.100
170.100	2.562	0.100
170.200	-16.664	0.100
170.300	-18.720	0.100
170.400	-11.340	0.100
170.500	-1.013	0.100
170.600	-6.724	0.100
170.700	-17.294	0.100
170.800	0.274	0.100
170.900	1.923	0.100
171.000	-14.669	0.100
171.100	-21.628	0.100
171.200	-8.500	0.100
171.300	-9.540	0.100
171.400	-14.981	0.100
171.500	-14.708	0.100
171.600	-9.310	0.100
171.700	4.389	0.100
171.800	-8.370	0.100
171.900	-5.036	0.100
172.000	-12.250	0.100
172.100	-17.935	0.100
172.200	-1.583	0.100
172.300	-20.844	0.100
172.400	-12.211	0.100
172.500	-10.017	0.100
172.600	-4.011	0.100
172.700	-9.604	0.100
172.800	2.404	0.100
172.900	-9.340	0.100
173.000	-12.447	0.100
173.100	-8.571	0.100
173.200	-27.832	0.100
173.300	-15.066	0.100
173.400	-15.818	0.100
173.500	-10.844	0.100
173.600	-28.824	0.100
173.700	-4.920	0.100
173.800	-6.521	0.100
173.900	-19.152	0.100
174.000	-6.922	0.100
174.100	-4.654	0.100
174.200	0.645	0.100
174.300	0.212	0.100
174.400	-10.447	0.100
174.500	-13.250	0.100
174.600	-12.852	0.100
174.700	-10.752	0.100
174.800	-19.885	0.100
174.900	-12.752	0.100
175.000	-17.403	0.100
175.100	-14.854	0.100
175.200	-5.564	0.100
175.300	-4.136	0.100
175.400	-15.006	0.100
175.500	-22.401	0.100
175.600	-3.980	0.100
175.700	-5.879	0.100
175.800	-7.858	0.100
175.900	-13.906	0.100
176.000	-5.824	0.100
176.100	-9.318	0.100
176.200	-2.443	0.100
176.300	-9.778	0.100
176.400	-28.214	0.100
176.500	-26.133	0.100
176.600	-10.914	0.100
176.700	-6.155	0.100
176.800	-1.462	0.100
176.900	-16.358	0.100
177.000	2.730	0.100
177.100	-18.685	0.100
177.200	-5.458	0.100
177.300	-10.596	0.100
177.400	-8.277	0.100
177.500	-11.120	0.100
177.600	-12.568	0.100
177.700	-10.052	0.100
177.800	-10.711	0.100
177.900	-22.935	0.100
178.000	-2.843	0.100
178.100	-2.385	0.100
178.200	-26.547	0.100
178.300	0.035	0.100
178.400	-14.255	0.100
178.500	-9.634	0.100
178.600	-7.239	0.100
178.700	-19.265	0.100
178.800	-14.277	0.100
178.900	-26.195	0.100
179.000	-11.813	0.100
179.100	-5.699	0.100
179.200	-23.805	0.100
179.300	5.302	0.100
179.400	-10.593	0.100
179.500	-15.702	0.100
179.600	-10.130	0.100
179.700	-3.843	0.100
179.800	-13.250	0.100
179.900	-15.751	0.100
180.000	-14.602	0.100
180.100	-2.373	0.100
180.200	-4.203	0.100
180.300	-3.685	0.100
180.400	-7.821	0.100
180.500	-0.018	0.100
180.600	-11.096	0.100
180.700	-14.633	0.100
180.800	-1.254	0.100
180.900	3.810	0.100
181.000	5.941	0.100
181.100	-8.234	0.100
181.200	-0.381	0.100
181.300	4.362	0.100
181.400	-5.989	0.100
181.500	11.193	0.100
181.600	7.731	0.100
181.700	-0.779	0.100
181.800	-6.397	0.100
181.900	14.704	0.100
182.000	-4.526	0.100
182.100	8.134	0.100
182.200	6.184	0.100
182.300	7.818	0.100
182.400	-0.810	0.100
182.500	2.541	0.100
182.600	2.078	0.100
182.700	6.413	0.100
182.800	4.654	0.100
182.900	-4.657	0.100
183.000	32.747	0.100
183.100	8.840	0.100
183.200	12.601	0.100
183.300	0.351	0.100
183.400	11.717	0.100
183.500	-0.770	0.100
183.600	-3.605	0.100
183.700	10.215	0.100
183.800	12.378	0.100
183.900	-1.946	0.100
184.000	11.992	0.100
184.100	10.467	0.100
184.200	15.543	0.100
184.300	-1.013	0.100
184.400	2.442	0.100
184.500	17.242	0.100
184.600	2.841	0.100
184.700	4.436	0.100
184.800	16.760	0.100
184.900	4.875	0.100
185.000	14.639	0.100
185.100	-5.979	0.100
185.200	16.960	0.100
185.300	-2.677	0.100
185.400	16.141	0.100
185.500	-7.174	0.100
185.600	11.192	0.100
185.700	8.141	0.100
185.800	5.633	0.100
185.900	-2.273	0.100
186.000	1.379	0.100
186.100	13.575	0.100
186.200	8.410	0.100
186.300	11.752	0.100
186.400	7.739	0.100
186.500	14.930	0.100
186.600	11.621	0.100
186.700	-12.323	0.100
186.800	23.000	0.100
186.900	-6.739	0.100
187.000	8.286	0.100
187.100	12.949	0.100
187.200	11.813	0.100
187.300	16.109	0.100
187.400	8.730	0.100
187.500	-4.591	0.100
187.600	-10.015	0.100
187.700	16.546	0.100
187.800	12.887	0.100
187.900	8.901	0.100
188.000	-1.246	0.100
188.100	11.368	0.100
188.200	16.420	0.100
188.300	4.238	0.100
188.400	-0.988	0.100
188.500	2.760	0.100
188.600	3.007	0.100
188.700	2.044	0.100
188.800	8.720	0.100
188.900	21.724	0.100
189.000	12.766	0.100
189.100	12.616	0.100
189.200	5.199	0.100
189.300	5.712	0.100
189.400	3.026	0.100
189.500	7.538	0.100
189.600	4.794	0.100
189.700	17.053	0.100
189.800	5.577	0.100
189.900	17.938	0.100
190.000	8.159	0.100
190.100	4.021	0.100
190.200	22.551	0.100
190.300	3.886	0.100
190.400	12.601	0.100
190.500	17.763	0.100
190.600	12.296	0.100
190.700	17.736	0.100
190.800	9.149	0.100
190.900	11.032	0.100
191.000	12.358	0.100
191.100	3.853	0.100
191.200	0.072	0.100
191.300	19.017	0.100
191.400	5.143	0.100
191.500	6.790	0.100
191.600	17.524	0.100
191.700	7.840	0.100
191.800	30.552	0.100
191.900	19.997	0.100
192.000	22.303	0.100
192.100	20.936	0.100
192.200	2.186	0.100
192.300	26.687	0.100
192.400	4.877	0.100
192.500	3.462	0.100
192.600	13.531	0.100
192.700	17.903	0.100
192.800	19.949	0.100
192.900	6.303	0.100
193.000	20.225	0.100
193.100	36.285	0.100
193.200	10.826	0.100
193.300	-5.244	0.100
193.400	19.533	0.100
193.500	15.502	0.100
193.600	11.971	0.100
193.700	17.463	0.100
193.800	21.095	0.100
193.900	15.752	0.100
194.000	7.327	0.100
194.100	34.594	0.100
194.200	10.278	0.100
194.300	21.335	0.100
194.400	16.762	0.100
194.500	19.436	0.100
194.600	26.456	0.100
194.700	5.361	0.100
194.800	15.492	0.100
194.900	22.478	0.100
195.000	38.695	0.100
195.100	9.637	0.100
195.200	15.930	0.100
195.300	7.636	0.100
195.400	19.295	0.100
195.500	12.542	0.100
195.600	7.513	0.100
195.700	16.739	0.100
195.800	9.278	0.100
195.900	19.652	0.100
196.000	5.496	0.100
196.100	14.029	0.100
196.200	14.459	0.100
196.300	20.477	0.100
196.400	16.007	0.100
196.500	11.873	0.100
196.600	18.724	0.100
196.700	22.097	0.100
196.800	10.288	0.100
196.900	27.383	0.100
197.000	15.148	0.100
197.100	14.775	0.100
197.200	20.255	0.100
197.300	24.463	0.100
197.400	11.664	0.100
197.500	34.165	0.100
197.600	-2.735	0.100
197.700	28.749	0.100
197.800	29.792	0.100
197.900	27.657	0.100
198.000	5.392	0.100
198.100	12.494	0.100
198.200	10.074	0.100
198.300	12.837	0.100
198.400	26.303	0.100
198.500	18.332	0.100
198.600	15.702	0.100
198.700	34.389	0.100
198.800	19.037	0.100
198.900	19.004	0.100
199.000	17.720	0.100
199.100	14.759	0.100
199.200	17.516	0.100
199.300	24.130	0.100
199.400	19.111	0.100
199.500	16.253	0.100
199.600	8.684	0.100
199.700	26.565	0.100
199.800	23.411	0.100
199.900	12.951	0.100
200.000	19.011	0.100
200.100	21.802	0.100
200.200	24.968	0.100
200.300	31.296	0.100
200.400	9.839	0.100
200.500	18.156	0.100
200.600	17.432	0.100
200.700	31.622	0.100
200.800	26.802	0.100
200.900	19.741	0.100
201.000	23.932	0.100
201.100	20.573	0.100
201.200	15.949	0.100
201.300	19.688	0.100
201.400	23.927	0.100
201.500	23.877	0.100
201.600	21.450	0.100
201.700	8.500	0.100
201.800	21.558	0.100
201.900	23.038	0.100
202.000	14.008	0.100
202.100	17.544	0.100
202.200	12.473	0.100
202.300	32.249	0.100
202.400	6.476	0.100
202.500	15.726	0.100
202.600	22.005	0.100
202.700	30.578	0.100
202.800	35.585	0.100
202.900	21.659	0.100
203.000	24.909	0.100
203.100	17.682	0.100
203.200	23.265	0.100
203.300	17.561	0.100
203.400	33.468	0.100
203.500	25.183	0.100
203.600	31.034	0.100
203.700	24.918	0.100
203.800	12.533	0.100
203.900	41.100	0.100
204.000	10.032	0.100
204.100	23.797	0.100
204.200	35.004	0.100
204.300	8.687	0.100
204.400	27.086	0.100
204.500	24.941	0.100
204.600	20.876	0.100
204.700	24.369	0.100
204.800	22.291	0.100
204.900	25.254	0.100
205.000	24.318	0.100
205.100	28.207	0.100
205.200	10.613	0.100
205.300	14.879	0.100
205.400	22.862	0.100
205.500	10.350	0.100
205.600	29.259	0.100
205.700	19.898	0.100
205.800	34.594	0.100
205.900	23.184	0.100
206.000	14.181	0.100
206.100	21.088	0.100
206.200	33.989	0.100
206.300	18.383	0.100
206.400	16.724	0.100
206.500	10.077	0.100
206.600	38.830	0.100
206.700	22.633	0.100
206.800	22.744	0.100
206.900	22.149	0.100
207.000	22.236	0.100
207.100	15.869	0.100
207.200	29.591	0.100
207.300	33.994	0.100
207.400	27.798	0.100
207.500	6.567	0.100
207.600	33.041	0.100
207.700	24.634	0.100
207.800	25.987	0.100
207.900	20.542	0.100
208.000	26.882	0.100
208.100	21.017	0.100
208.200	33.311	0.100
208.300	16.865	0.100
208.400	29.122	0.100
208.500	30.597	0.100
208.600	20.773	0.100
208.700	17.987	0.100
208.800	33.827	0.100
208.900	31.378	0.100
209.000	16.968	0.100
209.100	7.460	0.100
209.200	39.290	0.100
209.300	26.339	0.100
209.400	24.222	0.100
209.500	38.809	0.100
209.600	13.675	0.100
209.700	33.263	0.100
209.800	29.835	0.100
209.900	24.339	0.100
210.000	23.717	0.100
210.100	30.995	0.100
210.200	18.792	0.100
210.300	24.359	0.100
210.400	32.651	0.100
210.500	39.973	0.100
210.600	18.661	0.100
210.700	19.346	0.100
210.800	26.667	0.100
210.900	19.151	0.100
211.000	26.569	0.100
211.100	25.940	0.100
211.200	29.779	0.100
211.300	29.854	0.100
211.400	30.636	0.100
211.500	32.216	0.100
211.600	31.895	0.100
211.700	9.653	0.100
211.800	22.284	0.100
211.900	33.301	0.100
212.000	16.356	0.100
212.100	24.706	0.100
212.200	20.572	0.100
212.300	16.235	0.100
212.400	39.464	0.100
212.500	24.900	0.100
212.600	23.900	0.100
212.700	20.275	0.100
212.800	41.392	0.100
212.900	9.314	0.100
213.000	33.450	0.100
213.100	21.950	0.100
213.200	36.198	0.100
213.300	27.010	0.100
213.400	19.412	0.100
213.500	25.721	0.100
213.600	35.542	0.100
213.700	28.762	0.100
213.800	29.338	0.100
213.900	15.590	0.100
214.000	26.780	0.100
214.100	26.759	0.100
214.200	9.909	0.100
214.300	44.937	0.100
214.400	33.098	0.100
214.500	17.738	0.100
214.600	17.344	0.100
214.700	32.774	0.100
214.800	18.804	0.100
214.900	20.976	0.100
215.000	21.707	0.100
215.100	34.050	0.100
215.200	33.665	0.100
215.300	20.945	0.100
215.400	23.483	0.100
215.500	42.735	0.100
215.600	32.458	0.100
215.700	34.921	0.100
215.800	29.169	0.100
215.900	20.232	0.100
216.000	18.935	0.100
216.100	12.284	0.100
216.200	35.185	0.100
216.300	25.887	0.100
216.400	22.645	0.100
216.500	29.620	0.100
216.600	23.303	0.100
216.700	10.246	0.100
216.800	34.987	0.100
216.900	24.992	0.100
217.000	29.070	0.100
217.100	26.606	0.100
217.200	39.867	0.100
217.300	31.110	0.100
217.400	30.939	0.100
217.500	29.255	0.100
217.600	25.100	0.100
217.700	27.251	0.100
217.800	24.696	0.100
217.900	40.199	0.100
218.000	16.996	0.100
218.100	31.242	0.100
218.200	23.322	0.100
218.300	20.300	0.100
218.400	26.748	0.100
218.500	19.457	0.100
218.600	25.287	0.100
218.700	53.868	0.100
218.800	26.352	0.100
218.900	22.305	0.101
219.000	46.906	0.100
219.100	22.121	0.100
219.200	27.165	0.100
219.300	31.220	0.100
219.400	23.060	0.100
219.500	32.572	0.100
219.600	23.412	0.100
219.700	36.452	0.100
219.800	24.960	0.100
219.900	36.146	0.100
220.000	27.475	0.100
220.100	29.076	0.100
220.200	28.774	0.100
220.300	27.352	0.100
220.400	24.560	0.100
220.500	27.838	0.100
220.600	37.423	0.100
220.700	31.522	0.100
220.800	31.126	0.100
220.900	44.110	0.100
221.000	28.570	0.100
221.100	33.014	0.100
221.200	34.964	0.100
221.300	38.838	0.100
221.400	27.533	0.100
221.500	37.587	0.100
221.600	30.652	0.100
221.700	27.755	0.100
221.800	24.462	0.100
221.900	23.987	0.100
222.000	24.284	0.100
222.100	30.715	0.100
222.200	24.150	0.100
222.300	38.115	0.100
222.400	20.384	0.100
222.500	32.819	0.100
222.600	30.371	0.100
222.700	25.199	0.100
222.800	41.317	0.100
222.900	30.955	0.100
223.000	19.384	0.100
223.100	27.501	0.100
223.200	39.190	0.100
223.300	34.216	0.100
223.400	36.201	0.100
223.500	28.720	0.100
223.600	33.869	0.100
223.700	29.013	0.100
223.800	37.454	0.100
223.900	30.026	0.100
224.000	26.668	0.100
224.100	29.819	0.100
224.200	14.689	0.100
224.300	31.460	0.100
224.400	39.434	0.100
224.500	23.661	0.100
224.600	25.175	0.100
224.700	32.729	0.100
224.800	40.227	0.100
224.900	37.337	0.100
225.000	23.727	0.100
225.100	24.358	0.100
225.200	31.895	0.100
225.300	46.113	0.100
225.400	14.051	0.100
225.500	43.347	0.100
225.600	30.347	0.100
225.700	39.962	0.100
225.800	22.144	0.100
225.900	39.287	0.100
226.000	23.638	0.100
226.100	17.041	0.100
226.200	30.873	0.100
226.300	33.079	0.100
226.400	37.041	0.100
226.500	24.394	0.100
226.600	36.109	0.100
226.700	32.967	0.100
226.800	15.988	0.100
226.900	31.075	0.100
227.000	40.972	0.101
227.100	30.759	0.100
227.200	28.511	0.100
227.300	39.129	0.100
227.400	27.737	0.100
227.500	36.558	0.100
227.600	30.669	0.100
227.700	40.647	0.100
227.800	35.541	0.100
227.900	28.929	0.100
228.000	19.550	0.100
228.100	24.173	0.100
228.200	30.361	0.100
228.300	32.497	0.100
228.400	20.761	0.100
228.500	31.245	0.100
228.600	21.448	0.101
228.700	32.176	0.100
228.800	35.632	0.100
228.900	41.090	0.100
229.000	27.727	0.100
229.100	30.962	0.100
229.200	28.054	0.100
229.300	20.509	0.100
229.400	34.428	0.100
229.500	35.778	0.100
229.600	33.912	0.100
229.700	29.501	0.100
229.800	30.894	0.100
229.900	31.117	0.100
230.000	23.008	0.100
230.100	33.092	0.100
230.200	38.748	0.100
230.300	43.059	0.100
230.400	21.369	0.100
230.500	14.099	0.100
230.600	26.622	0.100
230.700	49.735	0.100
230.800	34.634	0.100
230.900	36.882	0.100
231.000	39.812	0.100
231.100	27.128	0.100
231.200	46.941	0.100
231.300	34.426	0.100
231.400	11.920	0.100
231.500	33.283	0.100
231.600	28.679	0.100
231.700	43.974	0.100
231.800	19.538	0.100
231.900	23.797	0.100
232.000	18.839	0.100
232.100	30.793	0.100
232.200	39.603	0.100
232.300	29.692	0.100
232.400	45.255	0.100
232.500	20.881	0.100
232.600	27.426	0.100
232.700	26.117	0.100
232.800	35.869	0.100
232.900	29.718	0.100
233.000	40.672	0.100
233.100	34.016	0.100
233.200	28.335	0.100
233.300	37.102	0.100
233.400	21.296	0.100
233.500	30.932	0.100
233.600	44.786	0.100
233.700	26.546	0.100
233.800	33.998	0.100
233.900	12.932	0.100
234.000	29.664	0.100
234.100	34.841	0.100
234.200	39.300	0.100
234.300	27.290	0.100
234.400	37.609	0.100
234.500	33.934	0.100
234.600	21.714	0.100
234.700	25.706	0.100
234.800	23.674	0.100
234.900	27.735	0.100
235.000	37.603	0.100
235.100	37.443	0.100
235.200	45.595	0.100
235.300	26.360	0.100
235.400	29.464	0.100
235.500	46.443	0.100
235.600	14.551	0.100
235.700	37.344	0.100
235.800	31.731	0.100
235.900	29.041	0.100
236.000	33.430	0.100
236.100	37.494	0.100
236.200	25.436	0.100
236.300	25.193	0.100
236.400	33.210	0.100
236.500	30.950	0.100
236.600	36.923	0.100
236.700	36.121	0.100
236.800	28.881	0.100
236.900	33.713	0.100
237.000	28.755	0.100
237.100	30.707	0.100
237.200	29.356	0.100
237.300	30.539	0.100
237.400	24.226	0.100
237.500	35.542	0.100
237.600	23.184	0.100
237.700	30.168	0.100
237.800	35.215	0.100
237.900	39.305	0.100
238.000	36.043	0.100
238.100	40.380	0.100
238.200	27.972	0.100
238.300	21.101	0.100
238.400	18.830	0.100
238.500	32.579	0.100
238.600	35.327	0.100
238.700	16.520	0.100
238.800	33.361	0.100
238.900	26.864	0.100
239.000	31.270	0.100
239.100	31.467	0.100
239.200	23.450	0.100
239.300	23.330	0.100
239.400	29.957	0.100
239.500	39.527	0.100
239.600	35.900	0.100
239.700	29.776	0.100
239.800	13.423	0.100
239.900	39.741	0.100
240.000	33.831	0.100
240.100	32.375	0.100
240.200	42.195	0.100
240.300	29.483	0.100
240.400	35.734	0.100
240.500	24.877	0.100
240.600	31.211	0.100
240.700	26.031	0.100
240.800	29.199	0.100
240.900	23.097	0.100
241.000	14.086	0.100
241.100	29.623	0.100
241.200	11.375	0.100
241.300	20.528	0.100
241.400	24.261	0.100
241.500	4.534	0.100
241.600	23.297	0.100
241.700	5.026	0.100
241.800	13.641	0.100
241.900	10.740	0.100
242.000	10.565	0.100
242.100	8.110	0.100
242.200	1.523	0.100
242.300	-11.368	0.100
242.400	-2.915	0.100
242.500	11.975	0.100
242.600	2.902	0.100
242.700	5.952	0.100
242.800	-1.003	0.100
242.900	9.436	0.100
243.000	-1.950	0.100
243.100	-4.540	0.100
243.200	-3.166	0.100
243.300	6.036	0.100
243.400	-4.034	0.100
243.500	2.954	0.100
243.600	-26.027	0.100
243.700	1.935	0.100
243.800	-14.789	0.100
243.900	14.359	0.100
244.000	-11.515	0.100
244.100	-2.023	0.100
244.200	-8.367	0.100
244.300	-5.556	0.100
244.400	1.732	0.100
244.500	4.025	0.100
244.600	-17.477	0.100
244.700	-18.801	0.100
244.800	-2.917	0.100
244.900	-12.905	0.100
245.000	-13.174	0.100
245.100	-14.614	0.100
245.200	-17.104	0.100
245.300	-13.980	0.100
245.400	1.009	0.100
245.500	-9.808	0.100
245.600	-13.449	0.100
245.700	-15.681	0.100
245.800	-10.346	0.100
245.900	-23.369	0.100
246.000	-18.604	0.100
246.100	-6.054	0.100
246.200	-1.392	0.100
246.300	-6.719	0.100
246.400	1.472	0.100
246.500	-11.737	0.100
246.600	-12.662	0.100
246.700	-14.217	0.100
246.800	-14.576	0.100
246.900	-17.646	0.100
247.000	0.161	0.100
247.100	-24.810	0.100
247.200	-10.962	0.100
247.300	-12.748	0.100
247.400	-9.781	0.100
247.500	-11.743	0.100
247.600	-7.765	0.100
247.700	-9.580	0.100
247.800	-9.007	0.100
247.900	-20.664	0.100
248.000	-19.553	0.100
248.100	0.803	0.100
248.200	-7.203	0.100
248.300	-15.251	0.100
248.400	-9.706	0.100
248.500	-24.738	0.100
248.600	-13.814	0.100
248.700	1.254	0.100
248.800	-13.553	0.100
248.900	-8.266	0.100
249.000	-13.723	0.100
249.100	-2.856	0.100
249.200	-17.009	0.100
249.300	-13.864	0.100
249.400	-12.868	0.100
249.500	-6.087	0.100
249.600	-7.829	0.100
249.700	-24.851	0.100
249.800	-6.603	0.100
249.900	-15.777	0.100
250.000	-15.823	0.100
250.100	-10.970	0.100
250.200	-7.914	0.100
250.300	-16.998	0.100
250.400	-25.816	0.100
250.500	-23.164	0.100
250.600	-8.289	0.100
250.700	-21.767	0.100
250.800	-9.099	0.100
250.900	-18.655	0.100
251.000	-23.198	0.100
251.100	-15.980	0.100
251.200	0.220	0.100
251.300	-14.631	0.100
251.400	-11.300	0.100
251.500	-22.626	0.100
251.600	-22.315	0.100
251.700	-9.231	0.100
251.800	-25.690	0.100
251.900	-23.134	0.100
252.000	-29.276	0.100
252.100	-6.796	0.100
252.200	-11.244	0.100
252.300	-23.190	0.100
252.400	-18.028	0.100
252.500	-20.362	0.100
252.600	0.907	0.100
252.700	-20.128	0.100
252.800	-20.691	0.100
252.900	-19.975	0.100
253.000	-13.047	0.100
253.100	-17.155	0.100
253.200	-8.876	0.100
253.300	-2.418	0.100
253.400	-15.987	0.100
253.500	-23.508	0.100
253.600	-7.768	0.100
253.700	-16.951	0.100
253.800	0.086	0.100
253.900	-5.886	0.100
254.000	-25.222	0.100
254.100	-17.815	0.100
254.200	-9.928	0.100
254.300	-5.180	0.100
254.400	-8.018	0.100
254.500	-16.454	0.100
254.600	-16.339	0.100
254.700	-19.016	0.100
254.800	-29.610	0.100
254.900	-1.187	0.100
255.000	-14.938	0.100
255.100	-9.959	0.100
255.200	-21.944	0.100
255.300	-23.079	0.100
255.400	-11.862	0.100
255.500	-17.553	0.100
255.600	-19.745	0.100
255.700	-13.567	0.100
255.800	-9.670	0.100
255.900	-29.075	0.100
256.000	-13.732	0.100
256.100	-17.235	0.100
256.200	-23.103	0.100
256.300	-19.251	0.100
256.400	-12.442	0.100
256.500	-18.711	0.100
256.600	-6.143	0.100
256.700	-15.675	0.100
256.800	-17.563	0.100
256.900	-27.370	0.100
257.000	-15.943	0.100
257.100	-15.339	0.100
257.200	-12.733	0.100
257.300	-16.938	0.100
257.400	-13.058	0.100
257.500	-20.044	0.100
257.600	-18.232	0.100
257.700	-20.386	0.100
257.800	-25.346	0.100
257.900	-26.129	0.100
258.000	-6.791	0.100
258.100	-20.492	0.100
258.200	-17.677	0.100
258.300	-25.334	0.100
258.400	-17.249	0.100
258.500	-13.340	0.100
258.600	-14.964	0.100
258.700	-16.606	0.100
258.800	-17.162	0.100
258.900	-17.178	0.100
259.000	-18.005	0.100
259.100	-19.499	0.100
259.200	-11.849	0.100
259.300	-20.485	0.100
259.400	-9.729	0.100
259.500	-4.657	0.100
259.600	-29.887	0.100
259.700	-37.043	0.100
259.800	-3.987	0.100
259.900	-7.168	0.100
260.000	-21.985	0.100
260.100	-23.334	0.100
260.200	-2.847	0.100
260.300	-24.653	0.100
260.400	-16.785	0.100
260.500	-12.776	0.100
260.600	-9.717	0.100
260.700	-13.273	0.100
260.800	-29.052	0.100
260.900	-19.097	0.100
261.000	-32.246	0.100
261.100	-12.805	0.100
261.200	-16.333	0.100
261.300	-30.271	0.100
261.400	-17.503	0.100
261.500	-13.838	0.100
261.600	-14.492	0.100
261.700	-22.262	0.100
261.800	-19.674	0.100
261.900	-15.737	0.100
262.000	-22.195	0.100
262.100	-14.489	0.100
262.200	-30.585	0.100
262.300	-21.317	0.100
262.400	-7.047	0.100
262.500	-19.052	0.100
262.600	-14.859	0.100
262.700	-30.968	0.100
262.800	-12.552	0.100
262.900	-15.628	0.100
263.000	-44.632	0.100
263.100	-9.568	0.100
263.200	-36.053	0.100
263.300	-10.371	0.100
263.400	-14.834	0.100
263.500	-12.412	0.100
263.600	-8.487	0.100
263.700	-15.959	0.100
263.800	-18.251	0.100
263.900	-29.876	0.100
264.000	-17.942	0.100
264.100	-14.482	0.100
264.200	-24.047	0.100
264.300	4.756	0.100
264.400	-17.534	0.100
264.500	-20.726	0.100
264.600	-11.342	0.100
264.700	-8.890	0.100
264.800	-20.135	0.100
264.900	-27.289	0.100
265.000	-13.923	0.100
265.100	-11.628	0.100
265.200	-36.535	0.100
265.300	-9.768	0.100
265.400	-28.039	0.100
265.500	-4.029	0.100
265.600	-28.084	0.100
265.700	-19.529	0.100
265.800	-26.680	0.100
265.900	-23.183	0.100
266.000	-14.034	0.100
266.100	-8.594	0.100
266.200	-20.334	0.100
266.300	-11.967	0.100
266.400	-20.718	0.100
266.500	-20.446	0.100
266.600	-9.904	0.100
266.700	-25.107	0.100
266.800	-22.835	0.100
266.900	-16.541	0.100
267.000	-9.132	0.100
267.100	-25.632	0.100
267.200	-15.434	0.100
267.300	-26.450	0.100
267.400	-17.434	0.100
267.500	-18.856	0.100
267.600	-3.192	0.100
267.700	-17.715	0.100
267.800	-36.580	0.100
267.900	-11.556	0.100
268.000	-24.049	0.100
268.100	-35.463	0.100
268.200	-22.789	0.100
268.300	-15.872	0.100
268.400	-21.387	0.100
268.500	-22.418	0.100
268.600	-20.420	0.100
268.700	-20.264	0.100
268.800	-16.911	0.100
268.900	-22.991	0.100
269.000	-28.454	0.100
269.100	-6.682	0.100
269.200	-8.847	0.100
269.300	-23.406	0.100
269.400	-15.855	0.100
269.500	-22.700	0.100
269.600	-16.433	0.100
269.700	-19.835	0.100
269.800	-29.898	0.100
269.900	-10.111	0.100
270.000	-6.690	0.100
270.100	-26.010	0.100
270.200	-15.192	0.100
270.300	-22.911	0.100
270.400	-2.356	0.100
270.500	-21.801	0.100
270.600	-11.385	0.100
270.700	-24.895	0.100
270.800	-13.878	0.100
270.900	-34.771	0.100
271.000	-17.192	0.100
271.100	-13.707	0.100
271.200	-19.170	0.100
271.300	-12.401	0.100
271.400	-17.482	0.100
271.500	-14.279	0.100
271.600	-28.946	0.100
271.700	-12.647	0.100
271.800	-15.599	0.100
271.900	-21.201	0.100
272.000	-2.228	0.100
272.100	-21.969	0.100
272.200	-29.921	0.100
272.300	-13.906	0.100
272.400	-26.939	0.100
272.500	-14.937	0.100
272.600	-24.376	0.100
272.700	-8.585	0.100
272.800	-7.933	0.100
272.900	-20.852	0.100
273.000	-18.487	0.100
273.100	-4.549	0.100
273.200	-13.133	0.100
273.300	-37.324	0.100
273.400	-7.893	0.100
273.500	-12.468	0.100
273.600	-15.479	0.100
273.700	-26.063	0.100
273.800	-29.516	0.100
273.900	-15.458	0.100
274.000	-22.654	0.100
274.100	-21.722	0.100
274.200	-3.121	0.100
274.300	-19.409	0.100
274.400	-20.992	0.100
274.500	-23.097	0.100
274.600	-10.542	0.100
274.700	-28.814	0.100
274.800	-17.370	0.100
274.900	-17.239	0.100
275.000	-20.655	0.100
275.100	6.143	0.100
275.200	-19.932	0.100
275.300	-5.110	0.100
275.400	-18.209	0.100
275.500	-15.285	0.100
275.600	-13.385	0.100
275.700	-10.764	0.100
275.800	-26.689	0.100
275.900	-14.148	0.100
276.000	-11.107	0.100
276.100	-8.847	0.100
276.200	-26.510	0.100
276.300	-19.325	0.100
276.400	-16.490	0.100
276.500	-32.827	0.100
276.600	-10.291	0.100
276.700	-10.375	0.100
276.800	-13.866	0.100
276.900	-16.359	0.100
277.000	-15.405	0.100
277.100	-30.542	0.100
277.200	-7.488	0.100
277.300	-30.759	0.100
277.400	-10.860	0.100
277.500	-26.724	0.100
277.600	-15.036	0.100
277.700	-11.471	0.100
277.800	-22.740	0.100
277.900	-15.384	0.100
278.000	-22.939	0.100
278.100	-12.466	0.100
278.200	-7.920	0.100
278.300	-12.684	0.100
278.400	-18.786	0.100
278.500	-8.053	0.100
278.600	-9.172	0.100
278.700	-8.505	0.100
278.800	-26.623	0.100
278.900	-6.519	0.100
279.000	-3.519	0.100
279.100	-28.114	0.100
279.200	-19.991	0.100
279.300	-15.963	0.100
279.400	-9.656	0.100
279.500	-24.651	0.100
279.600	-14.094	0.100
279.700	-11.825	0.100
279.800	-10.913	0.100
279.900	-10.039	0.100
280.000	-13.475	0.100
280.100	-10.103	0.100
280.200	-12.665	0.100
280.300	-42.177	0.100
280.400	-18.945	0.100
280.500	-7.172	0.100
280.600	-23.020	0.100
280.700	8.143	0.100
280.800	-17.983	0.100
280.900	-14.971	0.100
281.000	-8.195	0.100
281.100	-4.889	0.100
281.200	-18.375	0.100
281.300	-27.825	0.100
281.400	-6.857	0.100
281.500	-17.158	0.100
281.600	-14.054	0.100
281.700	-20.659	0.100
281.800	-10.451	0.100
281.900	-15.681	0.100
282.000	-23.361	0.100
282.100	-4.860	0.100
282.200	-4.373	0.100
282.300	-32.456	0.100
282.400	-15.410	0.100
282.500	-2.318	0.100
282.600	-12.016	0.100
282.700	-18.445	0.100
282.800	-16.182	0.100
282.900	-19.719	0.100
283.000	-11.735	0.100
283.100	-8.352	0.100
283.200	-8.268	0.100
283.300	-27.518	0.100
283.400	-6.637	0.100
283.500	-17.354	0.100
283.600	-16.748	0.100
283.700	-6.739	0.100
283.800	-22.635	0.100
283.900	-17.160	0.100
284.000	-12.427	0.100
284.100	-24.687	0.100
284.200	-19.089	0.100
284.300	-10.135	0.100
284.400	-25.394	0.100
284.500	-12.201	0.100
284.600	-11.311	0.100
284.700	-12.114	0.100
284.800	-16.977	0.100
284.900	-7.340	0.100
285.000	-20.094	0.100
285.100	-15.447	0.100
285.200	-23.450	0.100
285.300	-16.484	0.100
285.400	-7.992	0.100
285.500	-17.614	0.100
285.600	-17.487	0.100
285.700	-17.930	0.100
285.800	-3.282	0.100
285.900	-20.913	0.100
286.000	-11.546	0.100
286.100	-3.513	0.100
286.200	-16.959	0.100
286.300	-26.190	0.100
286.400	-11.249	0.100
286.500	-7.045	0.100
286.600	-6.276	0.100
286.700	-26.895	0.100
286.800	1.440	0.100
286.900	-11.041	0.100
287.000	1.155	0.100
287.100	-14.381	0.100
287.200	-21.569	0.100
287.300	-14.547	0.100
287.400	-6.859	0.100
287.500	-17.228	0.100
287.600	-15.762	0.100
287.700	-17.449	0.100
287.800	-18.183	0.100
287.900	-5.092	0.100
288.000	-10.440	0.100
288.100	-15.213	0.100
288.200	-6.248	0.100
288.300	-17.194	0.100
288.400	-7.601	0.100
288.500	-9.342	0.100
288.600	1.042	0.100
288.700	-17.389	0.100
288.800	-17.389	0.100
288.900	-14.358	0.100
289.000	-21.432	0.100
289.100	-11.273	0.100
289.200	-2.258	0.100
289.300	8.891	0.100
289.400	-18.865	0.100
289.500	-25.343	0.100
289.600	-10.591	0.100
289.700	-17.719	0.100
289.800	-9.263	0.100
289.900	-23.468	0.100
290.000	-1.701	0.100
290.100	-15.973	0.100
290.200	-11.023	0.100
290.300	-3.859	0.100
290.400	-12.805	0.100
290.500	-11.366	0.100
290.600	-12.777	0.100
290.700	-23.992	0.100
290.800	-6.058	0.100
290.900	-7.901	0.100
291.000	-8.311	0.100
291.100	-21.020	0.100
291.200	-13.365	0.100
291.300	-6.578	0.100
291.400	-17.120	0.100
291.500	-4.450	0.100
291.600	-25.636	0.100
291.700	-11.533	0.100
291.800	-26.046	0.100
291.900	-7.254	0.100
292.000	-10.207	0.100
292.100	-18.503	0.100
292.200	-7.782	0.100
292.300	-19.286	0.100
292.400	-14.675	0.100
292.500	-7.921	0.100
292.600	-6.760	0.100
292.700	-13.967	0.100
292.800	-25.320	0.100
292.900	-22.956	0.100
293.000	-13.682	0.100
293.100	-17.191	0.100
293.200	-17.947	0.100
293.300	-1.932	0.100
293.400	-3.270	0.100
293.500	-22.311	0.100
293.600	-21.565	0.100
293.700	-4.604	0.100
293.800	-1.928	0.100
293.900	1.299	0.100
294.000	-2.821	0.100
294.100	-13.340	0.100
294.200	-5.973	0.100
294.300	-0.571	0.100
294.400	-17.278	0.100
294.500	-20.663	0.100
294.600	-11.246	0.100
294.700	-23.720	0.100
294.800	-21.588	0.100
294.900	-12.870	0.100
295.000	-10.617	0.100
295.100	-12.647	0.100
295.200	-10.810	0.100
295.300	-15.948	0.100
295.400	-9.156	0.100
295.500	-9.035	0.100
295.600	-19.816	0.100
295.700	-11.489	0.100
295.800	-18.221	0.100
295.900	-18.391	0.100
296.000	-18.857	0.100
296.100	-8.818	0.100
296.200	-10.834	0.100
296.300	-7.077	0.100
296.400	-17.883	0.100
296.500	-0.267	0.100
296.600	-26.120	0.100
296.700	-3.025	0.100
296.800	-17.872	0.100
296.900	-16.739	0.100
297.000	-15.581	0.100
297.100	-10.145	0.100
297.200	-15.041	0.100
297.300	-18.200	0.100
297.400	-9.982	0.100
297.500	-10.589	0.100
297.600	-15.738	0.100
297.700	-15.909	0.100
297.800	-8.098	0.100
297.900	-16.878	0.100
298.000	-6.321	0.100
298.100	-20.138	0.100
298.200	-11.386	0.100
298.300	-10.956	0.100
298.400	-15.375	0.100
298.500	-15.044	0.100
298.600	-8.640	0.100
298.700	-3.009	0.100
298.800	-5.505	0.100
298.900	-13.886	0.100
299.000	-19.684	0.100
299.100	-24.801	0.100
299.200	-20.890	0.100
299.300	-3.733	0.100
299.400	-11.656	0.100
299.500	-19.703	0.100
299.600	-25.541	0.100
299.700	-9.633	0.100
299.800	-25.072	0.100
299.900	-5.670	0.100
300.000	-0.547	0.100
300.100	-13.263	0.100
300.200	-21.594	0.100
300.300	-14.270	0.100
300.400	-16.214	0.100
300.500	-22.787	0.100
300.600	-6.119	0.100
300.700	-12.019	0.100
300.800	-14.667	0.100
300.900	-1.236	0.100
301.000	-17.888	0.100
301.100	-4.118	0.100
301.200	-15.729	0.100
301.300	-9.811	0.100
301.400	-19.699	0.100
301.500	-14.006	0.100
301.600	-8.559	0.100
301.700	-15.469	0.100
301.800	-12.903	0.100
301.900	-7.117	0.100
302.000	-20.785	0.100
302.100	-8.287	0.100
302.200	-10.801	0.100
302.300	-13.338	0.100
302.400	-8.034	0.100
302.500	-7.467	0.100
302.600	-18.065	0.100
302.700	-23.208	0.100
302.800	-4.911	0.100
302.900	-8.549	0.100
303.000	-8.362	0.100
303.100	-8.879	0.100
303.200	-15.158	0.100
303.300	-14.606	0.100
303.400	-11.020	0.100
303.500	-23.024	0.100
303.600	-12.998	0.100
303.700	-16.029	0.100
303.800	-15.755	0.100
303.900	-17.035	0.100
304.000	-12.782	0.100
304.100	-10.812	0.100
304.200	-6.833	0.100
304.300	-17.565	0.100
304.400	-15.793	0.100
304.500	-12.515	0.100
304.600	-22.670	0.100
304.700	-1.128	0.100
304.800	-7.250	0.100
304.900	-12.710	0.100
305.000	-8.850	0.100
305.100	-8.436	0.100
305.200	-2.253	0.100
305.300	-18.186	0.100
305.400	-11.385	0.100
305.500	-21.918	0.100
305.600	0.143	0.100
305.700	-16.559	0.100
305.800	-11.620	0.100
305.900	-14.835	0.100
306.000	-12.557	0.100
306.100	-11.943	0.100
306.200	-0.941	0.100
306.300	-11.836	0.100
306.400	-19.142	0.100
306.500	-19.125	0.100
306.600	-5.639	0.100
306.700	-17.333	0.100
306.800	-6.745	0.100
306.900	-6.070	0.100
307.000	-19.258	0.100
307.100	-11.260	0.100
307.200	-29.772	0.100
307.300	-16.922	0.100
307.400	-8.755	0.100
307.500	-26.866	0.100
307.600	-21.438	0.100
307.700	4.859	0.100
307.800	-11.539	0.100
307.900	6.742	0.100
308.000	-11.283	0.100
308.100	-21.287	0.100
308.200	-8.379	0.100
308.300	-9.703	0.100
308.400	-21.652	0.100
308.500	-23.421	0.100
308.600	-17.443	0.100
308.700	-6.725	0.100
308.800	-15.543	0.100
308.900	-12.120	0.100
309.000	-26.924	0.100
309.100	-8.224	0.100
309.200	-19.836	0.100
309.300	-15.841	0.100
309.400	-11.205	0.100
309.500	-6.212	0.100
309.600	-23.706	0.100
309.700	-10.584	0.100
309.800	-3.204	0.100
309.900	-8.452	0.100
310.000	0.589	0.100
310.100	-16.687	0.100
310.200	-9.030	0.100
310.300	-0.327	0.100
310.400	-15.290	0.100
310.500	-12.630	0.100
310.600	-3.037	0.100
310.700	-20.513	0.100
310.800	-10.970	0.100
310.900	-20.213	0.100
311.000	-12.141	0.100
311.100	-13.051	0.100
311.200	-18.227	0.100
311.300	-9.091	0.100
311.400	-11.467	0.100
311.500	-13.737	0.100
311.600	0.927	0.100
311.700	-13.591	0.100
311.800	-18.710	0.100
311.900	-9.912	0.100
312.000	-24.497	0.100
312.100	-14.334	0.100
312.200	-11.248	0.100
312.300	-20.153	0.100
312.400	-14.529	0.100
312.500	-9.961	0.100
312.600	-24.219	0.100
312.700	-28.027	0.100
312.800	-10.474	0.100
312.900	-17.683	0.100
313.000	-11.219	0.100
313.100	-0.559	0.100
313.200	-16.446	0.100
313.300	-16.339	0.100
313.400	-16.282	0.100
313.500	0.525	0.100
313.600	-7.412	0.100
313.700	-24.260	0.100
313.800	-6.335	0.100
313.900	-11.056	0.100
314.000	-17.720	0.100
314.100	-3.213	0.100
314.200	-4.225	0.100
314.300	-18.346	0.100
314.400	-28.951	0.100
314.500	-9.759	0.100
314.600	-15.830	0.100
314.700	-5.602	0.100
314.800	-3.861	0.100
314.900	-8.586	0.100
315.000	-16.203	0.100
315.100	-11.108	0.100
315.200	-14.819	0.100
315.300	-8.601	0.100
315.400	-12.564	0.100
315.500	-6.257	0.100
315.600	-12.486	0.100
315.700	-15.889	0.100
315.800	-24.435	0.100
315.900	-12.465	0.100
316.000	-15.902	0.100
316.100	-1.241	0.100
316.200	-14.081	0.100
316.300	-11.101	0.100
316.400	0.785	0.100
316.500	-25.264	0.100
316.600	-17.953	0.100
316.700	-21.451	0.100
316.800	-20.074	0.100
316.900	-8.404	0.100
317.000	-12.486	0.100
317.100	-10.113	0.100
317.200	-20.009	0.100
317.300	-0.467	0.100
317.400	-15.835	0.100
317.500	-15.848	0.100
317.600	-17.906	0.100
317.700	-6.178	0.100
317.800	-9.106	0.100
317.900	-22.666	0.100
318.000	-10.309	0.100
318.100	-11.848	0.100
318.200	-0.782	0.100
318.300	-11.813	0.100
318.400	-17.299	0.100
318.500	-12.448	0.100
318.600	-3.963	0.100
318.700	-11.709	0.100
318.800	-21.184	0.100
318.900	-16.224	0.100
319.000	-21.744	0.100
319.100	-12.782	0.100
319.200	-11.019	0.100
319.300	-24.201	0.100
319.400	-5.913	0.100
319.500	-9.818	0.100
319.600	-15.653	0.100
319.700	3.454	0.100
319.800	-25.112	0.100
319.900	-11.642	0.100
320.000	-24.918	0.100
320.100	-13.507	0.100
320.200	-11.523	0.100
320.300	-7.986	0.100
320.400	-18.105	0.100
320.500	-3.780	0.100
320.600	-17.981	0.100
320.700	-16.043	0.100
320.800	-4.298	0.100
320.900	-3.185	0.100
321.000	12.605	0.100
321.100	-8.374	0.100
321.200	-9.603	0.100
321.300	-17.037	0.100
321.400	-13.234	0.100
321.500	-9.581	0.100
321.600	-9.748	0.100
321.700	-12.686	0.100
321.800	-14.616	0.100
321.900	-31.258	0.100
322.000	-10.210	0.100
322.100	-9.254	0.100
322.200	-27.903	0.100
322.300	-1.397	0.100
322.400	-23.763	0.100
322.500	-5.797	0.100
322.600	-7.341	0.100
322.700	-14.494	0.100
322.800	-24.572	0.100
322.900	-8.375	0.100
323.000	-1.584	0.100
323.100	-9.054	0.100
323.200	-14.351	0.100
323.300	-18.776	0.100
323.400	-19.689	0.100
323.500	-5.596	0.100
323.600	-17.257	0.100
323.700	-8.015	0.100
323.800	-6.753	0.100
323.900	-19.334	0.100
324.000	-6.843	0.100
324.100	3.094	0.100
324.200	-10.757	0.100
324.300	-2.522	0.100
324.400	-14.939	0.100
324.500	-12.893	0.100
324.600	-9.239	0.100
324.700	-21.471	0.100
324.800	-10.248	0.100
324.900	-15.078	0.100
325.000	-11.423	0.100
325.100	-22.738	0.100
325.200	-10.455	0.100
325.300	-5.927	0.100
325.400	-19.364	0.100
325.500	-12.754	0.100
325.600	-16.277	0.100
325.700	-0.343	0.100
325.800	-13.538	0.100
325.900	12.051	0.100
326.000	-23.250	0.100
326.100	-14.077	0.100
326.200	-12.173	0.100
326.300	-7.095	0.100
326.400	-25.661	0.100
326.500	-4.762	0.100
326.600	2.825	0.100
326.700	-28.866	0.100
326.800	-10.802	0.100
326.900	-3.972	0.100
327.000	-11.008	0.100
327.100	-10.024	0.100
327.200	-11.667	0.100
327.300	-11.443	0.100
327.400	-29.993	0.100
327.500	-9.338	0.100
327.600	-14.496	0.100
327.700	-18.089	0.100
327.800	-0.872	0.100
327.900	-4.620	0.100
328.000	-31.605	0.100
328.100	-20.148	0.100
328.200	1.542	0.100
328.300	-14.745	0.100
328.400	-12.144	0.100
328.500	-9.492	0.100
328.600	1.737	0.100
328.700	-13.191	0.100
328.800	-17.030	0.100
328.900	-4.343	0.100
329.000	-15.485	0.100
329.100	-14.710	0.100
329.200	-19.821	0.100
329.300	-2.127	0.100
329.400	-4.233	0.100
329.500	-8.963	0.100
329.600	-18.351	0.100
329.700	-4.897	0.100
329.800	-24.638	0.100
329.900	-13.647	0.100
330.000	-0.306	0.100
330.100	-17.845	0.100
330.200	-5.107	0.100
330.300	-2.018	0.100
330.400	-13.959	0.100
330.500	-1.534	0.100
330.600	-18.439	0.100
330.700	-12.080	0.100
330.800	0.893	0.100
330.900	-10.415	0.100
331.000	5.057	0.100
331.100	-17.419	0.100
331.200	2.677	0.100
331.300	12.059	0.100
331.400	-2.797	0.100
331.500	17.637	0.100
331.600	-0.305	0.100
331.700	-0.329	0.100
331.800	1.280	0.100
331.900	25.170	0.100
332.000	2.426	0.100
332.100	-9.741	0.100
332.200	9.736	0.100
332.300	7.321	0.100
332.400	3.075	0.100
332.500	6.680	0.100
332.600	16.796	0.100
332.700	4.619	0.100
332.800	0.887	0.100
332.900	1.373	0.100
333.000	17.763	0.100
333.100	-3.059	0.100
333.200	13.281	0.100
333.300	1.849	0.100
333.400	11.675	0.100
333.500	9.050	0.100
333.600	4.826	0.100
333.700	8.491	0.100
333.800	-2.268	0.100
333.900	9.177	0.100
334.000	11.149	0.100
334.100	8.876	0.100
334.200	4.695	0.100
334.300	4.769	0.101
334.400	10.884	0.101
334.500	2.151	0.101
334.600	16.584	0.101
334.700	-2.379	0.100
334.800	5.948	0.101
334.900	12.752	0.101
335.000	20.765	0.101
335.100	-4.849	0.101
335.200	8.708	0.101
335.300	3.320	0.101
335.400	-0.831	0.101
335.500	3.276	0.101
335.600	13.676	0.101
335.700	10.352	0.101
335.800	-4.270	0.101
335.900	4.435	0.101
336.000	20.333	0.101
336.100	22.317	0.101
336.200	-4.778	0.101
336.300	-2.075	0.101
336.400	3.126	0.101
336.500	21.651	0.101
336.600	11.633	0.101
336.700	3.026	0.101
336.800	-6.078	0.101
336.900	-7.237	0.101
337.000	13.270	0.101
337.100	13.667	0.101
337.200	19.703	0.101
337.300	-14.975	0.101
337.400	5.155	0.101
337.500	0.229	0.101
337.600	12.162	0.101
337.700	10.798	0.101
337.800	13.311	0.101
337.900	-4.874	0.101
338.000	7.313	0.101
338.100	9.715	0.101
338.200	9.459	0.101
338.300	2.050	0.101
338.400	15.599	0.101
338.500	8.565	0.101
338.600	11.447	0.101
338.700	5.563	0.101
338.800	17.512	0.101
338.900	12.665	0.101
339.000	2.224	0.101
339.100	16.975	0.101
339.200	2.413	0.101
339.300	0.895	0.101
339.400	9.015	0.101
339.500	7.255	0.101
339.600	10.090	0.101
339.700	16.660	0.101
339.800	15.952	0.101
339.900	21.910	0.101
340.000	-3.032	0.101
340.100	12.955	0.101
340.200	1.118	0.101
340.300	1.318	0.101
340.400	22.831	0.101
340.500	1.832	0.101
340.600	11.737	0.101
340.700	15.264	0.101
340.800	7.438	0.101
340.900	17.225	0.101
341.000	13.094	0.101
341.100	1.126	0.101
341.200	5.806	0.101
341.300	11.569	0.101
341.400	1.889	0.101
341.500	20.381	0.101
341.600	11.806	0.101
341.700	6.579	0.101
341.800	13.553	0.101
341.900	31.259	0.101
342.000	18.437	0.101
342.100	20.144	0.101
342.200	0.260	0.101
342.300	8.760	0.101
342.400	20.277	0.101
342.500	15.828	0.101
342.600	8.534	0.101
342.700	20.562	0.101
342.800	11.292	0.101
342.900	-0.131	0.101
343.000	13.879	0.101
343.100	27.607	0.101
343.200	15.904	0.101
343.300	17.949	0.101
343.400	7.461	0.101
343.500	22.974	0.101
343.600	13.653	0.101
343.700	17.784	0.101
343.800	22.488	0.101
343.900	19.308	0.101
344.000	18.847	0.101
344.100	4.363	0.101
344.200	20.389	0.101
344.300	9.252	0.101
344.400	17.864	0.101
344.500	24.948	0.101
344.600	22.775	0.101
344.700	24.085	0.101
344.800	25.563	0.101
344.900	13.313	0.101
345.000	20.366	0.101
345.100	3.348	0.101
345.200	26.909	0.101
345.300	12.202	0.101
345.400	14.480	0.101
345.500	26.991	0.101
345.600	9.674	0.101
345.700	9.079	0.101
345.800	42.413	0.101
345.900	3.381	0.101
346.000	16.301	0.101
346.100	29.788	0.101
346.200	18.784	0.101
346.300	15.211	0.101
346.400	24.062	0.101
346.500	15.349	0.101
346.600	21.211	0.101
346.700	22.967	0.101
346.800	27.573	0.101
346.900	9.652	0.101
347.000	16.181	0.101
347.100	34.216	0.101
347.200	17.765	0.101
347.300	22.195	0.101
347.400	13.897	0.101
347.500	20.427	0.101
347.600	11.297	0.101
347.700	32.410	0.101
347.800	20.054	0.101
347.900	27.126	0.101
348.000	19.322	0.101
348.100	30.415	0.101
348.200	29.417	0.101
348.300	25.046	0.101
348.400	25.220	0.101
348.500	24.034	0.101
348.600	13.149	0.101
348.700	13.038	0.101
348.800	19.704	0.101
348.900	32.242	0.101
349.000	27.357	0.101
349.100	6.686	0.101
349.200	8.379	0.101
349.300	18.555	0.101
349.400	31.247	0.101
349.500	28.644	0.101
349.600	20.228	0.101
349.700	23.847	0.101
349.800	13.904	0.101
349.900	22.472	0.101
350.000	22.239	0.101
350.100	10.941	0.101
350.200	25.792	0.101
350.300	21.655	0.101
350.400	21.629	0.101
350.500	12.763	0.101
350.600	29.496	0.101
350.700	41.315	0.101
350.800	19.178	0.101
350.900	16.703	0.101
351.000	13.298	0.101
351.100	30.856	0.101
351.200	13.475	0.101
351.300	19.943	0.101
351.400	12.108	0.101
351.500	17.507	0.101
351.600	31.874	0.101
351.700	21.419	0.101
351.800	20.416	0.101
351.900	20.331	0.101
352.000	22.784	0.101
352.100	12.722	0.101
352.200	14.430	0.101
352.300	40.732	0.101
352.400	23.412	0.101
352.500	28.221	0.101
352.600	19.095	0.101
352.700	36.737	0.101
352.800	27.106	0.101
352.900	19.229	0.101
353.000	17.921	0.101
353.100	21.383	0.101
353.200	20.905	0.101
353.300	27.401	0.101
353.400	27.382	0.101
353.500	29.453	0.101
353.600	33.782	0.101
353.700	20.590	0.101
353.800	27.561	0.101
353.900	32.493	0.101
354.000	38.614	0.101
354.100	23.713	0.101
354.200	19.403	0.101
354.300	17.436	0.101
354.400	32.312	0.101
354.500	25.430	0.101
354.600	23.487	0.101
354.700	27.107	0.101
354.800	13.671	0.101
354.900	23.328	0.101
355.000	20.101	0.101
355.100	31.155	0.101
355.200	30.900	0.101
355.300	20.825	0.101
355.400	29.355	0.101
355.500	34.306	0.101
355.600	17.755	0.101
355.700	25.612	0.101
355.800	20.975	0.101
355.900	25.071	0.101
356.000	25.253	0.101
356.100	17.597	0.101
356.200	25.795	0.101
356.300	15.864	0.101
356.400	30.531	0.101
356.500	33.297	0.100
356.600	18.479	0.100
356.700	19.049	0.101
356.800	20.109	0.100
356.900	30.038	0.100
357.000	23.725	0.100
357.100	24.938	0.101
357.200	32.408	0.100
357.300	26.230	0.100
357.400	19.408	0.100
357.500	26.861	0.100
357.600	23.655	0.100
357.700	21.978	0.100
357.800	22.556	0.100
357.900	27.994	0.100
358.000	43.831	0.100
358.100	28.127	0.100
358.200	21.692	0.100
358.300	26.561	0.100
358.400	36.797	0.100
358.500	34.669	0.100
358.600	31.110	0.100
358.700	27.756	0.100
358.800	21.385	0.100
358.900	31.685	0.100
359.000	26.482	0.100
359.100	30.825	0.100
359.200	25.491	0.100
359.300	17.574	0.100
359.400	26.858	0.100
359.500	28.844	0.100
359.600	30.629	0.100
359.700	36.430	0.100
359.800	14.425	0.100
359.900	31.512	0.100
360.000	25.666	0.100
360.100	36.020	0.100
360.200	36.309	0.100
360.300	22.732	0.100
360.400	20.956	0.100
360.500	23.536	0.100
360.600	31.738	0.100
360.700	36.936	0.100
360.800	26.057	0.100
360.900	24.574	0.100
361.000	21.422	0.100
361.100	28.621	0.100
361.200	18.080	0.100
361.300	30.932	0.100
361.400	32.237	0.100
361.500	29.290	0.100
361.600	22.117	0.100
361.700	18.574	0.100
361.800	34.645	0.100
361.900	25.388	0.100
362.000	21.877	0.100
362.100	26.542	0.100
362.200	25.418	0.100
362.300	18.710	0.100
362.400	25.458	0.100
362.500	33.841	0.100
362.600	33.784	0.100
362.700	31.660	0.100
362.800	23.634	0.100
362.900	23.635	0.100
363.000	37.740	0.100
363.100	24.895	0.100
363.200	34.479	0.100
363.300	28.297	0.100
363.400	41.366	0.100
363.500	29.407	0.100
363.600	33.785	0.100
363.700	28.099	0.100
363.800	33.678	0.100
363.900	45.198	0.100
364.000	25.965	0.100
364.100	31.224	0.100
364.200	16.827	0.100
364.300	37.976	0.100
364.400	27.505	0.100
364.500	32.996	0.100
364.600	16.704	0.100
364.700	26.586	0.100
364.800	39.762	0.100
364.900	21.960	0.100
365.000	28.794	0.100
365.100	22.152	0.100
365.200	34.963	0.100
365.300	34.974	0.100
365.400	30.863	0.100
365.500	24.969	0.100
365.600	24.960	0.100
365.700	27.191	0.100
365.800	22.447	0.100
365.900	17.586	0.100
366.000	26.438	0.100
366.100	31.257	0.100
366.200	16.152	0.100
366.300	35.391	0.100
366.400	37.774	0.100
366.500	32.386	0.100
366.600	30.768	0.100
366.700	47.961	0.100
366.800	35.004	0.100
366.900	35.092	0.100
367.000	30.213	0.100
367.100	32.286	0.100
367.200	33.093	0.100
367.300	34.155	0.100
367.400	22.076	0.100
367.500	27.781	0.100
367.600	29.676	0.100
367.700	37.895	0.100
367.800	21.745	0.100
367.900	32.111	0.100
368.000	28.111	0.100
368.100	38.955	0.100
368.200	25.235	0.100
368.300	24.893	0.100
368.400	29.494	0.100
368.500	40.848	0.100
368.600	17.235	0.100
368.700	22.791	0.100
368.800	39.734	0.100
368.900	30.189	0.100
369.000	35.272	0.100
369.100	19.208	0.100
369.200	32.270	0.100
369.300	30.074	0.100
369.400	22.972	0.100
369.500	36.260	0.100
369.600	30.873	0.100
369.700	35.593	0.100
369.800	34.072	0.100
369.900	26.597	0.100
370.000	32.515	0.100
370.100	26.310	0.100
370.200	24.651	0.100
370.300	34.024	0.100
370.400	45.225	0.100
370.500	29.193	0.100
370.600	48.497	0.100
370.700	30.519	0.100
370.800	26.702	0.100
370.900	26.945	0.100
371.000	29.969	0.100
371.100	28.459	0.100
371.200	17.928	0.100
371.300	40.281	0.100
371.400	33.871	0.100
371.500	27.655	0.100
371.600	26.939	0.100
371.700	43.128	0.100
371.800	26.020	0.100
371.900	29.318	0.100
372.000	30.920	0.100
372.100	23.709	0.100
372.200	33.378	0.100
372.300	33.429	0.100
372.400	27.876	0.100
372.500	29.931	0.100
372.600	37.300	0.100
372.700	35.808	0.100
372.800	38.705	0.100
372.900	36.273	0.100
373.000	24.772	0.100
373.100	31.695	0.100
373.200	25.165	0.100
373.300	36.426	0.100
373.400	32.815	0.100
373.500	39.288	0.100
373.600	19.380	0.100
373.700	27.325	0.100
373.800	24.457	0.100
373.900	41.191	0.100
374.000	28.768	0.101
374.100	32.325	0.100
374.200	31.280	0.100
374.300	33.479	0.100
374.400	15.859	0.100
374.500	42.132	0.100
374.600	21.261	0.100
374.700	27.014	0.100
374.800	33.189	0.100
374.900	30.253	0.100
375.000	40.914	0.100
375.100	38.825	0.100
375.200	34.835	0.100
375.300	27.187	0.100
375.400	31.279	0.100
375.500	36.241	0.100
375.600	20.893	0.101
375.700	42.152	0.100
375.800	23.047	0.100
375.900	30.609	0.100
376.000	37.351	0.100
376.100	25.386	0.100
376.200	38.452	0.100
376.300	42.163	0.100
376.400	33.331	0.100
376.500	22.925	0.100
376.600	39.096	0.100
376.700	25.495	0.100
376.800	38.493	0.100
376.900	29.351	0.100
377.000	34.094	0.100
377.100	34.234	0.100
377.200	20.459	0.100
377.300	26.584	0.100
377.400	25.667	0.100
377.500	30.242	0.100
377.600	42.132	0.100
377.700	39.319	0.100
377.800	32.772	0.100
377.900	31.135	0.100
378.000	34.503	0.100
378.100	33.313	0.100
378.200	21.193	0.100
378.300	34.734	0.100
378.400	21.561	0.100
378.500	33.738	0.100
378.600	26.553	0.100
378.700	32.756	0.100
378.800	27.368	0.100
378.900	32.499	0.101
379.000	40.410	0.100
379.100	32.148	0.100
379.200	25.027	0.100
379.300	31.244	0.100
379.400	30.395	0.100
379.500	35.979	0.100
379.600	32.503	0.100
379.700	22.700	0.100
379.800	28.125	0.100
379.900	37.584	0.101
380.000	20.085	0.100
380.100	33.800	0.100
380.200	31.540	0.101
380.300	22.892	0.100
380.400	38.221	0.100
380.500	32.879	0.100
380.600	27.181	0.100
380.700	23.558	0.100
380.800	30.333	0.100
380.900	26.763	0.100
381.000	26.062	0.100
381.100	35.746	0.100
381.200	34.664	0.100
381.300	40.876	0.100
381.400	34.362	0.100
381.500	38.097	0.100
381.600	26.229	0.100
381.700	38.309	0.100
381.800	20.176	0.100
381.900	40.319	0.100
382.000	35.673	0.100
382.100	23.670	0.100
382.200	24.381	0.100
382.300	35.822	0.100
382.400	23.088	0.100
382.500	36.008	0.100
382.600	35.293	0.100
382.700	25.026	0.100
382.800	25.153	0.100
382.900	32.027	0.100
383.000	25.475	0.100
383.100	30.274	0.100
383.200	38.045	0.100
383.300	27.912	0.100
383.400	27.044	0.100
383.500	39.321	0.100
383.600	31.460	0.100
383.700	35.812	0.100
383.800	30.666	0.100
383.900	26.795	0.100
384.000	45.566	0.100
384.100	22.336	0.100
384.200	34.400	0.101
384.300	31.632	0.100
384.400	22.168	0.100
384.500	28.683	0.100
384.600	32.099	0.100
384.700	27.287	0.100
384.800	34.304	0.100
384.900	23.375	0.100
385.000	30.430	0.100
385.100	28.120	0.100
385.200	36.786	0.100
385.300	32.117	0.100
385.400	32.847	0.100
385.500	27.399	0.100
385.600	25.666	0.100
385.700	27.269	0.100
385.800	29.493	0.100
385.900	34.967	0.100
386.000	33.241	0.100
386.100	29.783	0.100
386.200	23.001	0.100
386.300	14.740	0.100
386.400	24.370	0.100
386.500	33.297	0.100
386.600	36.795	0.100
386.700	29.759	0.100
386.800	41.938	0.100
386.900	23.711	0.100
387.000	27.973	0.100
387.100	40.243	0.100
387.200	30.228	0.100
387.300	34.808	0.100
387.400	25.628	0.100
387.500	38.165	0.100
387.600	13.976	0.100
387.700	33.710	0.100
387.800	28.621	0.100
387.900	26.446	0.100
388.000	29.698	0.100
388.100	41.564	0.100
388.200	27.548	0.100
388.300	28.212	0.100
388.400	36.225	0.100
388.500	28.607	0.100
388.600	35.779	0.100
388.700	25.284	0.100
388.800	25.114	0.100
388.900	30.564	0.100
389.000	22.195	0.100
389.100	32.410	0.100
389.200	23.594	0.100
389.300	25.993	0.100
389.400	34.178	0.100
389.500	28.633	0.100
389.600	39.069	0.100
389.700	36.435	0.100
389.800	30.945	0.100
389.900	24.131	0.100
390.000	38.041	0.100
390.100	23.072	0.100
390.200	39.551	0.100
390.300	24.596	0.100
390.400	33.789	0.100
390.500	40.083	0.100
390.600	25.143	0.100
390.700	15.128	0.100
390.800	41.896	0.100
390.900	2.774	0.100
391.000	21.052	0.100
391.100	23.947	0.100
391.200	13.959	0.100
391.300	25.472	0.100
391.400	15.365	0.100
391.500	10.906	0.100
391.600	3.082	0.100
391.700	6.704	0.100
391.800	9.252	0.100
391.900	1.840	0.100
392.000	-3.531	0.100
392.100	6.281	0.100
392.200	-3.964	0.100
392.300	4.957	0.100
392.400	3.040	0.100
392.500	2.893	0.100
392.600	-0.781	0.100
392.700	-2.564	0.100
392.800	-21.864	0.100
392.900	2.758	0.100
393.000	19.186	0.100
393.100	-3.946	0.100
393.200	1.386	0.100
393.300	-16.079	0.100
393.400	6.612	0.100
393.500	-15.743	0.100
393.600	-3.940	0.100
393.700	-10.956	0.100
393.800	-22.450	0.100
393.900	-7.160	0.100
394.000	2.772	0.100
394.100	-11.703	0.100
394.200	-3.146	0.100
394.300	-16.345	0.100
394.400	-1.663	0.100
394.500	-11.936	0.100
394.600	-3.373	0.100
394.700	-23.427	0.100
394.800	6.506	0.100
394.900	-7.193	0.100
395.000	-9.573	0.100
395.100	-11.350	0.100
395.200	-19.964	0.100
395.300	-17.035	0.100
395.400	-21.011	0.100
395.500	-4.842	0.100
395.600	-10.010	0.100
395.700	-14.365	0.100
395.800	-17.258	0.100
395.900	-7.266	0.100
396.000	-28.979	0.100
396.100	-12.678	0.100
396.200	4.475	0.100
396.300	-15.685	0.100
396.400	0.395	0.100
396.500	-20.875	0.100
396.600	-16.457	0.100
396.700	-6.523	0.100
396.800	-10.595	0.100
396.900	-11.775	0.100
397.000	-26.103	0.100
397.100	-21.688	0.100
397.200	-2.431	0.100
397.300	-11.535	0.100
397.400	-16.051	0.100
397.500	-9.785	0.100
397.600	-9.589	0.100
397.700	-13.936	0.100
397.800	-16.700	0.100
397.900	-11.496	0.100
398.000	-16.557	0.100
398.100	-6.090	0.100
398.200	-14.748	0.100
398.300	-19.049	0.100
398.400	-17.005	0.100
398.500	-9.888	0.100
398.600	-0.899	0.100
398.700	-16.667	0.100
398.800	-23.018	0.100
398.900	-11.462	0.100
399.000	-19.151	0.100
399.100	-13.981	0.100
399.200	1.200	0.100
399.300	-21.093	0.100
399.400	-17.259	0.100
399.500	-14.962	0.100
399.600	-0.438	0.100
399.700	-14.299	0.100
399.800	-14.988	0.100
399.900	-25.116	0.100
400.000	-18.101	0.100
400.100	-11.241	0.100
400.200	-16.299	0.100
400.300	-19.393	0.100
400.400	-9.349	0.100
400.500	-15.418	0.100
400.600	-4.409	0.100
400.700	-4.980	0.100
400.800	-20.004	0.100
400.900	-17.323	0.100
401.000	-11.954	0.100
401.100	-9.533	0.100
401.200	-21.017	0.100
401.300	-19.393	0.100
401.400	-15.889	0.100
401.500	-7.895	0.100
401.600	-23.819	0.100
401.700	-22.433	0.100
401.800	-6.630	0.100
401.900	-15.875	0.100
402.000	-2.770	0.100
402.100	-28.644	0.100
402.200	-18.301	0.100
402.300	-4.246	0.100
402.400	-12.641	0.100
402.500	-12.888	0.100
402.600	-21.628	0.100
402.700	-26.010	0.100
402.800	-1.960	0.100
402.900	-18.325	0.100
403.000	-26.240	0.100
403.100	-21.236	0.100
403.200	-9.701	0.100
403.300	-3.923	0.100
403.400	-21.342	0.100
403.500	-14.846	0.100
403.600	-17.547	0.100
403.700	-28.175	0.100
403.800	-20.477	0.100
403.900	-17.622	0.100
404.000	-20.414	0.100
404.100	-15.908	0.100
404.200	-12.237	0.100
404.300	-11.391	0.100
404.400	-25.094	0.100
404.500	-17.348	0.100
404.600	-14.277	0.100
404.700	-6.012	0.100
404.800	-28.462	0.100
404.900	-11.473	0.100
405.000	-28.031	0.100
405.100	-24.257	0.100
405.200	-18.102	0.100
405.300	-16.907	0.100
405.400	-20.125	0.100
405.500	-20.122	0.100
405.600	-21.953	0.100
405.700	-14.666	0.100
405.800	-10.107	0.100
405.900	-22.338	0.100
406.000	-22.995	0.100
406.100	-5.657	0.100
406.200	-21.060	0.100
406.300	-14.571	0.100
406.400	-32.035	0.100
406.500	-24.551	0.100
406.600	-25.136	0.100
406.700	-16.438	0.100
406.800	-26.351	0.100
406.900	-10.281	0.100
407.000	-19.694	0.100
407.100	-20.850	0.100
407.200	-30.171	0.100
407.300	-15.497	0.100
407.400	-25.088	0.100
407.500	-23.859	0.100
407.600	-15.014	0.100
407.700	-27.379	0.100
407.800	-15.809	0.100
407.900	-23.259	0.100
408.000	-16.340	0.100
408.100	-19.407	0.100
408.200	-6.354	0.100
408.300	-29.970	0.100
408.400	-26.256	0.100
408.500	-17.695	0.100
408.600	-20.861	0.100
408.700	-18.799	0.100
408.800	-14.793	0.100
408.900	-26.767	0.100
409.000	-20.062	0.100
409.100	-22.665	0.100
409.200	-22.250	0.100
409.300	-15.843	0.100
409.400	-20.913	0.100
409.500	-8.604	0.100
409.600	-22.019	0.100
409.700	-13.780	0.100
409.800	-19.533	0.100
409.900	-14.995	0.100
410.000	-32.742	0.100
410.100	-2.320	0.100
410.200	-26.006	0.100
410.300	-22.438	0.100
410.400	-21.362	0.100
410.500	-10.353	0.100
410.600	-21.362	0.100
410.700	-24.107	0.100
410.800	-14.715	0.100
410.900	-29.337	0.100
411.000	-10.497	0.100
411.100	-10.805	0.100
411.200	-23.167	0.100
411.300	-17.339	0.100
411.400	-24.392	0.100
411.500	-14.328	0.100
411.600	-6.615	0.100
411.700	-15.433	0.100
411.800	-20.324	0.100
411.900	-22.327	0.100
412.000	-26.141	0.100
412.100	-17.063	0.100
412.200	-16.162	0.100
412.300	-14.614	0.100
412.400	-26.885	0.100
412.500	-15.195	0.100
412.600	-25.350	0.100
412.700	-24.248	0.100
412.800	-10.633	0.100
412.900	-9.123	0.100
413.000	-30.686	0.100
413.100	-25.356	0.100
413.200	-25.858	0.100
413.300	-21.784	0.100
413.400	-22.845	0.100
413.500	-23.106	0.100
413.600	-17.217	0.100
413.700	-20.628	0.100
413.800	-8.821	0.100
413.900	-16.234	0.100
414.000	-17.005	0.100
414.100	-9.749	0.100
414.200	-29.644	0.100
414.300	-24.524	0.100
414.400	-12.549	0.100
414.500	-17.183	0.100
414.600	-12.973	0.100
414.700	-23.803	0.100
414.800	-5.099	0.100
414.900	-39.702	0.100
415.000	-19.645	0.100
415.100	-22.412	0.100
415.200	-11.867	0.100
415.300	-20.212	0.100
415.400	-23.292	0.100
415.500	-16.239	0.100
415.600	-22.013	0.100
415.700	-9.063	0.100
415.800	-28.228	0.100
415.900	-16.163	0.100
416.000	-12.216	0.100
416.100	-23.002	0.100
416.200	-24.483	0.100
416.300	-15.034	0.100
416.400	-11.678	0.100
416.500	-15.584	0.100
416.600	-16.857	0.100
416.700	-16.311	0.100
416.800	-16.611	0.100
416.900	-16.989	0.100
417.000	-13.023	0.100
417.100	-27.004	0.100
417.200	-9.882	0.100
417.300	-25.969	0.100
417.400	-24.723	0.100
417.500	-18.072	0.100
417.600	-21.017	0.100
417.700	-21.479	0.100
417.800	-3.414	0.100
417.900	-28.702	0.100
418.000	-7.928	0.100
418.100	-2.502	0.100
418.200	-23.012	0.100
418.300	-15.630	0.100
418.400	-33.883	0.100
418.500	-9.431	0.100
418.600	-6.797	0.100
418.700	-30.380	0.100
418.800	-17.113	0.100
418.900	-15.423	0.100
419.000	-27.809	0.100
419.100	-19.389	0.100
419.200	-14.762	0.100
419.300	-14.824	0.100
419.400	-13.523	0.100
419.500	-20.417	0.100
419.600	-24.750	0.100
419.700	-14.062	0.100
419.800	-22.243	0.100
419.900	-8.345	0.100
420.000	-21.340	0.100
420.100	-13.186	0.100
420.200	-24.358	0.100
420.300	-15.584	0.100
420.400	-13.941	0.100
420.500	-14.473	0.100
420.600	-19.031	0.100
420.700	-15.172	0.100
420.800	-23.795	0.100
420.900	-26.498	0.100
421.000	-5.004	0.100
421.100	-19.954	0.100
421.200	-23.045	0.100
421.300	-5.598	0.100
421.400	-15.161	0.100
421.500	-33.394	0.100
421.600	-20.070	0.100
421.700	-20.955	0.100
421.800	-18.085	0.100
421.900	-11.408	0.100
422.000	-11.558	0.100
422.100	-18.599	0.100
422.200	-16.584	0.100
422.300	-30.341	0.100
422.400	-16.132	0.100
422.500	-21.021	0.100
422.600	-20.939	0.100
422.700	-9.823	0.100
422.800	-8.370	0.100
422.900	-16.296	0.100
423.000	-18.909	0.100
423.100	-20.229	0.100
423.200	-14.105	0.100
423.300	-16.922	0.100
423.400	-24.041	0.100
423.500	-13.346	0.100
423.600	-15.503	0.100
423.700	-13.426	0.100
423.800	6.290	0.100
423.900	-38.502	0.100
424.000	-9.120	0.100
424.100	-31.429	0.100
424.200	-4.596	0.100
424.300	-15.435	0.100
424.400	-11.568	0.100
424.500	-12.325	0.100
424.600	-19.669	0.100
424.700	-31.170	0.100
424.800	-19.895	0.100
424.900	-15.547	0.100
425.000	-17.451	0.100
425.100	-8.223	0.100
425.200	-12.975	0.100
425.300	-16.394	0.100
425.400	-20.465	0.100
425.500	-20.843	0.100
425.600	-10.668	0.100
425.700	-18.233	0.100
425.800	-32.275	0.100
425.900	-12.345	0.100
426.000	-20.685	0.100
426.100	-6.718	0.100
426.200	-17.491	0.100
426.300	-22.759	0.100
426.400	-13.158	0.100
426.500	-19.518	0.100
426.600	-19.050	0.100
426.700	-20.929	0.100
426.800	-32.611	0.100
426.900	-17.746	0.100
427.000	-23.408	0.100
427.100	-10.957	0.100
427.200	-13.191	0.100
427.300	-19.617	0.100
427.400	-13.384	0.100
427.500	-26.070	0.100
427.600	-16.646	0.100
427.700	-17.782	0.100
427.800	-5.030	0.100
427.900	-23.338	0.100
428.000	-0.092	0.100
428.100	-19.066	0.100
428.200	-12.786	0.100
428.300	-8.351	0.100
428.400	0.069	0.100
428.500	-10.578	0.100
428.600	-23.427	0.100
428.700	-13.486	0.100
428.800	-17.550	0.100
428.900	-17.651	0.100
429.000	-25.885	0.100
429.100	-12.332	0.100
429.200	-12.138	0.100
429.300	-23.161	0.100
429.400	-10.700	0.100
429.500	-28.868	0.100
429.600	-9.988	0.100
429.700	-16.651	0.100
429.800	-10.337	0.100
429.900	-4.093	0.100
430.000	-14.964	0.100
430.100	-20.421	0.100
430.200	-16.826	0.100
430.300	-7.692	0.100
430.400	-25.466	0.100
430.500	-15.371	0.100
430.600	-2.501	0.100
430.700	-16.081	0.100
430.800	-22.609	0.100
430.900	-20.827	0.100
431.000	-11.206	0.100
431.100	-16.979	0.100
431.200	-7.679	0.100
431.300	-30.952	0.100
431.400	-15.142	0.100
431.500	2.066	0.100
431.600	-22.761	0.100
431.700	-23.396	0.100
431.800	-8.477	0.100
431.900	-27.503	0.100
432.000	-13.594	0.100
432.100	-6.554	0.100
432.200	-20.926	0.100
432.300	-13.476	0.100
432.400	-33.955	0.100
432.500	2.838	0.100
432.600	-15.389	0.100
432.700	-22.824	0.100
432.800	-7.900	0.100
432.900	-9.881	0.100
433.000	-12.036	0.100
433.100	-12.037	0.100
433.200	-19.293	0.100
433.300	-16.065	0.100
433.400	-22.885	0.100
433.500	-19.217	0.100
433.600	-0.461	0.100
433.700	-15.496	0.100
433.800	-1.520	0.100
433.900	-16.818	0.100
434.000	-2.038	0.100
434.100	-22.666	0.100
434.200	-10.812	0.100
434.300	-18.428	0.100
434.400	-25.413	0.100
434.500	-22.321	0.100
434.600	-23.302	0.100
434.700	-18.814	0.100
434.800	-19.099	0.100
434.900	-20.042	0.100
435.000	-7.844	0.100
435.100	-1.884	0.100
435.200	-15.200	0.100
435.300	-9.051	0.100
435.400	-18.636	0.100
435.500	-9.056	0.100
435.600	-25.996	0.100
435.700	-20.293	0.100
435.800	-15.713	0.100
435.900	3.966	0.100
436.000	-12.090	0.100
436.100	-12.805	0.100
436.200	-24.209	0.100
436.300	-12.637	0.100
436.400	-4.204	0.100
436.500	-24.169	0.100
436.600	-5.348	0.100
436.700	-18.841	0.100
436.800	-11.659	0.100
436.900	-3.057	0.100
437.000	-23.944	0.100
437.100	-0.030	0.100
437.200	-22.156	0.100
437.300	-19.129	0.100
437.400	-27.901	0.100
437.500	-3.811	0.100
437.600	-28.652	0.100
437.700	-11.697	0.100
437.800	0.075	0.100
437.900	-14.251	0.100
438.000	-10.652	0.100
438.100	-30.528	0.100
438.200	-21.949	0.100
438.300	-20.987	0.100
438.400	-10.554	0.100
438.500	-12.923	0.100
438.600	-4.226	0.100
438.700	-26.082	0.100
438.800	-12.002	0.100
438.900	-18.004	0.100
439.000	-0.118	0.100
439.100	-14.843	0.100
439.200	-14.749	0.100
439.300	-14.660	0.100
439.400	-18.242	0.100
439.500	-18.183	0.100
439.600	-9.827	0.100
439.700	-27.687	0.100
439.800	-9.565	0.100
439.900	-31.395	0.100
440.000	-34.264	0.100
440.100	-2.270	0.100
440.200	-4.174	0.100
440.300	-18.309	0.100
440.400	-16.431	0.100
440.500	-21.681	0.100
440.600	-20.576	0.100
440.700	-27.645	0.100
440.800	-4.163	0.100
440.900	-17.402	0.100
441.000	-13.208	0.100
441.100	-26.391	0.100
441.200	-14.531	0.100
441.300	-3.479	0.100
441.400	-27.736	0.100
441.500	-21.690	0.100
441.600	-8.955	0.100
441.700	-10.143	0.100
441.800	-15.257	0.100
441.900	-9.923	0.100
442.000	-27.439	0.100
442.100	-18.286	0.100
442.200	0.293	0.100
442.300	-29.548	0.100
442.400	-2.592	0.100
442.500	-25.315	0.100
442.600	-16.033	0.100
442.700	-14.348	0.100
442.800	-16.273	0.100
442.900	2.267	0.100
443.000	-15.522	0.100
443.100	-18.458	0.100
443.200	-11.173	0.100
443.300	-10.668	0.100
443.400	-15.003	0.100
443.500	-32.564	0.100
443.600	-20.878	0.100
443.700	4.305	0.100
443.800	-14.973	0.100
443.900	-16.863	0.100
444.000	-17.322	0.100
444.100	-21.019	0.100
444.200	-10.451	0.100
444.300	-13.102	0.100
444.400	-15.166	0.100
444.500	-5.651	0.100
444.600	-13.325	0.100
444.700	-4.012	0.100
444.800	-0.077	0.100
444.900	-25.110	0.100
445.000	-16.469	0.100
445.100	-16.316	0.100
445.200	-9.653	0.100
445.300	-7.370	0.100
445.400	-13.558	0.100
445.500	-5.843	0.100
445.600	-22.002	0.100
445.700	-13.537	0.100
445.800	-9.611	0.100
445.900	-7.975	0.100
446.000	-23.026	0.100
446.100	-11.592	0.100
446.200	-22.355	0.100
446.300	-7.195	0.100
446.400	-5.009	0.100
446.500	-14.636	0.100
446.600	-16.746	0.100
446.700	-15.817	0.100
446.800	-26.362	0.100
446.900	-12.051	0.100
447.000	-1.898	0.100
447.100	2.167	0.100
447.200	-34.340	0.100
447.300	-13.211	0.100
447.400	-18.076	0.100
447.500	-11.106	0.100
447.600	-9.912	0.100
447.700	-14.947	0.100
447.800	-11.591	0.100
447.900	-4.526	0.100
448.000	-7.730	0.100
448.100	-30.964	0.100
448.200	-19.760	0.100
448.300	-14.202	0.100
448.400	1.950	0.100
448.500	-24.130	0.100
448.600	-25.128	0.100
448.700	-14.018	0.100
448.800	-21.614	0.100
448.900	-11.632	0.100
449.000	-14.165	0.100
449.100	-7.796	0.100
449.200	-9.592	0.100
449.300	-13.510	0.100
449.400	-14.628	0.100
449.500	-26.028	0.100
449.600	-15.433	0.100
449.700	-14.264	0.101
449.800	-19.666	0.100
449.900	-16.826	0.100
450.000	-15.481	0.100
450.100	-5.794	0.100
450.200	-9.288	0.100
450.300	-18.877	0.100
450.400	-4.647	0.100
450.500	-12.533	0.100
450.600	-9.487	0.100
450.700	-16.952	0.100
450.800	-22.205	0.100
450.900	-16.332	0.100
451.000	-12.823	0.100
451.100	-8.677	0.100
451.200	-8.486	0.100
451.300	-10.951	0.100
451.400	-13.397	0.100
451.500	-18.434	0.100
451.600	-19.087	0.100
451.700	-2.218	0.100
451.800	-22.745	0.100
451.900	-15.537	0.100
452.000	-18.409	0.100
452.100	-19.838	0.100
452.200	-15.055	0.100
452.300	-10.949	0.101
452.400	1.022	0.100
452.500	-14.283	0.100
452.600	-24.925	0.100
452.700	4.139	0.100
452.800	-3.322	0.100
452.900	-12.701	0.100
453.000	-22.006	0.100
453.100	4.961	0.100
453.200	-25.537	0.100
453.300	5.190	0.100
453.400	-26.670	0.100
453.500	-4.408	0.100
453.600	-15.957	0.100
453.700	-17.768	0.100
453.800	-15.175	0.100
453.900	0.836	0.100
454.000	-18.474	0.100
454.100	-13.818	0.100
454.200	-3.019	0.100
454.300	-4.883	0.100
454.400	-21.330	0.100
454.500	-3.853	0.100
454.600	-12.649	0.100
454.700	-10.361	0.100
454.800	-24.269	0.100
454.900	-13.463	0.100
455.000	2.448	0.100
455.100	-15.098	0.100
455.200	-9.082	0.100
455.300	-8.771	0.100
455.400	0.168	0.100
455.500	-15.377	0.100
455.600	-13.816	0.100
455.700	-4.778	0.100
455.800	-19.777	0.100
455.900	-32.216	0.100
456.000	-2.084	0.100
456.100	-23.564	0.100
456.200	-14.633	0.100
456.300	-4.439	0.100
456.400	-18.580	0.100
456.500	-0.418	0.100
456.600	-25.194	0.100
456.700	-15.488	0.100
456.800	-30.016	0.100
456.900	-13.022	0.100
457.000	-11.654	0.100
457.100	-11.758	0.100
457.200	-12.974	0.100
457.300	-34.891	0.100
457.400	-8.245	0.100
457.500	-11.939	0.100
457.600	-2.709	0.100
457.700	-21.166	0.100
457.800	-7.843	0.100
457.900	-14.137	0.100
458.000	-8.620	0.100
458.100	-11.609	0.100
458.200	-6.383	0.100
458.300	-12.331	0.100
458.400	-25.810	0.100
458.500	-13.872	0.100
458.600	-20.089	0.100
458.700	-24.653	0.100
458.800	-14.669	0.100
458.900	-32.861	0.100
459.000	0.926	0.100
459.100	-3.001	0.100
459.200	-6.845	0.100
459.300	-2.546	0.100
459.400	-9.146	0.100
459.500	-10.550	0.100
459.600	-35.575	0.100
459.700	5.980	0.100
459.800	-19.556	0.100
459.900	-20.600	0.100
460.000	-2.481	0.100
460.100	-19.678	0.100
460.200	-3.477	0.100
460.300	-18.985	0.100
460.400	-26.160	0.100
460.500	-21.342	0.100
460.600	-15.984	0.100
460.700	-11.104	0.100
460.800	-23.408	0.100
460.900	-6.024	0.100
461.000	-14.849	0.100
461.100	-8.686	0.100
461.200	-23.900	0.100
461.300	-3.622	0.100
461.400	-7.061	0.100
461.500	-26.881	0.100
461.600	-13.029	0.100
461.700	-10.250	0.100
461.800	-23.831	0.100
461.900	-11.918	0.100
462.000	-15.429	0.100
462.100	-9.434	0.100
462.200	-10.938	0.100
462.300	-6.529	0.100
462.400	-17.362	0.100
462.500	-12.853	0.100
462.600	-19.393	0.100
462.700	-6.458	0.100
462.800	-17.831	0.100
462.900	-2.689	0.100
463.000	-21.634	0.100
463.100	-11.541	0.100
463.200	-16.642	0.100
463.300	-19.361	0.100
463.400	-9.565	0.100
463.500	-21.919	0.100
463.600	-17.520	0.100
463.700	-9.121	0.100
463.800	-7.812	0.100
463.900	-15.114	0.100
464.000	-18.246	0.100
464.100	-4.640	0.100
464.200	-16.646	0.100
464.300	-3.097	0.100
464.400	-21.128	0.100
464.500	-3.555	0.100
464.600	-10.450	0.100
464.700	-14.403	0.100
464.800	-22.650	0.100
464.900	-11.106	0.100
465.000	-15.537	0.100
465.100	-6.561	0.100
465.200	-29.063	0.100
465.300	-6.340	0.100
465.400	-15.764	0.100
465.500	-18.384	0.100
465.600	-20.299	0.100
465.700	-6.180	0.100
465.800	-11.275	0.100
465.900	-18.339	0.100
466.000	-17.843	0.100
466.100	-11.365	0.100
466.200	-15.180	0.100
466.300	-12.222	0.100
466.400	-16.008	0.100
466.500	-20.924	0.100
466.600	-13.395	0.100
466.700	-0.989	0.100
466.800	-14.573	0.100
466.900	-6.765	0.100
467.000	-11.632	0.100
467.100	-11.790	0.100
467.200	-8.634	0.100
467.300	-18.659	0.100
467.400	-11.927	0.100
467.500	-25.925	0.100
467.600	-5.954	0.100
467.700	-4.852	0.100
467.800	-16.051	0.100
467.900	-7.976	0.100
468.000	-22.232	0.100
468.100	-13.829	0.100
468.200	-9.171	0.100
468.300	-37.696	0.100
468.400	1.704	0.100
468.500	-1.293	0.100
468.600	-11.432	0.100
468.700	-4.381	0.100
468.800	-14.399	0.100
468.900	-4.306	0.100
469.000	-22.299	0.100
469.100	-7.585	0.100
469.200	-6.487	0.100
469.300	-12.371	0.100
469.400	-15.761	0.100
469.500	-17.011	0.100
469.600	-13.811	0.100
469.700	-17.944	0.100
469.800	4.956	0.100
469.900	-13.992	0.100
470.000	-4.308	0.100
470.100	-10.654	0.100
470.200	-18.004	0.100
470.300	-18.733	0.100
470.400	-10.586	0.100
470.500	-11.546	0.100
470.600	-19.285	0.100
470.700	-13.058	0.100
470.800	-11.346	0.100
470.900	-21.617	0.100
471.000	-11.715	0.100
471.100	-4.112	0.100
471.200	-10.029	0.100
471.300	-12.883	0.100
471.400	-14.283	0.100
471.500	-11.622	0.100
471.600	-13.776	0.100
471.700	-13.924	0.100
471.800	-17.421	0.100
471.900	-7.161	0.100
472.000	-19.821	0.100
472.100	-3.224	0.100
472.200	-20.352	0.100
472.300	-9.981	0.100
472.400	-2.838	0.100
472.500	-18.669	0.100
472.600	-5.636	0.100
472.700	-6.761	0.100
472.800	-20.140	0.100
472.900	-18.019	0.100
473.000	-9.363	0.100
473.100	-14.026	0.100
473.200	-3.603	0.100
473.300	-4.213	0.100
473.400	-13.997	0.100
473.500	-14.885	0.100
473.600	-9.502	0.100
473.700	-1.618	0.100
473.800	-19.313	0.100
473.900	-16.537	0.100
474.000	-9.297	0.100
474.100	-22.531	0.100
474.200	-10.699	0.100
474.300	-5.203	0.100
474.400	-17.877	0.100
474.500	-4.849	0.100
474.600	-1.180	0.100
474.700	-16.148	0.100
474.800	-11.014	0.100
474.900	-12.763	0.100
475.000	-9.393	0.100
475.100	-11.679	0.100
475.200	-15.882	0.100
475.300	-11.698	0.100
475.400	-8.711	0.100
475.500	-11.700	0.100
475.600	-30.393	0.100
475.700	-8.246	0.100
475.800	-12.116	0.100
475.900	-4.117	0.100
476.000	-8.665	0.100
476.100	-12.097	0.100
476.200	-18.066	0.100
476.300	-0.565	0.100
476.400	-4.448	0.100
476.500	-15.292	0.100
476.600	-23.943	0.100
476.700	-19.893	0.100
476.800	-7.433	0.100
476.900	-14.494	0.100
477.000	-13.493	0.100
477.100	-16.568	0.100
477.200	-15.069	0.100
477.300	-8.059	0.100
477.400	-4.566	0.100
477.500	-4.548	0.100
477.600	-5.538	0.100
477.700	-4.264	0.100
477.800	-18.986	0.100
477.900	-11.678	0.100
478.000	1.941	0.100
478.100	-11.513	0.100
478.200	-2.076	0.100
478.300	-14.015	0.100
478.400	-14.154	0.100
478.500	-8.002	0.100
478.600	-3.533	0.100
478.700	-8.745	0.100
478.800	-13.609	0.100
478.900	-6.387	0.100
479.000	-5.276	0.100
479.100	-10.274	0.100
479.200	-10.101	0.100
479.300	-11.137	0.100
479.400	-8.229	0.100
479.500	-18.177	0.100
479.600	-8.349	0.100
479.700	-16.581	0.100
479.800	-0.399	0.100
479.900	-13.255	0.100
480.000	-15.474	0.100
480.100	-16.728	0.100
480.200	-5.188	0.100
480.300	-19.578	0.100
480.400	-14.971	0.100
480.500	-11.443	0.100
480.600	1.440	0.100
480.700	-1.253	0.100
480.800	-2.949	0.100
480.900	-5.376	0.100
481.000	-3.515	0.100
481.100	-0.919	0.100
481.200	-13.436	0.100
481.300	-2.024	0.100
481.400	-2.402	0.100
481.500	3.712	0.100
481.600	7.099	0.100
481.700	-0.266	0.100
481.800	-3.128	0.100
481.900	-1.848	0.100
482.000	-2.319	0.100
482.100	3.282	0.100
482.200	4.204	0.100
482.300	14.356	0.100
482.400	6.393	0.100
482.500	-1.797	0.100
482.600	14.591	0.100
482.700	-12.623	0.100
482.800	7.232	0.100
482.900	15.706	0.100
483.000	6.621	0.100
483.100	6.477	0.100
483.200	0.481	0.100
483.300	17.304	0.100
483.400	-4.958	0.100
483.500	5.228	0.100
483.600	4.247	0.100
483.700	8.689	0.100
483.800	11.143	0.100
483.900	10.402	0.100
484.000	-6.837	0.100
484.100	3.983	0.100
484.200	7.163	0.100
484.300	3.405	0.100
484.400	-5.774	0.100
484.500	11.851	0.100
484.600	-7.705	0.100
484.700	18.872	0.100
484.800	10.201	0.101
484.900	-2.476	0.100
485.000	-2.762	0.100
485.100	1.037	0.101
485.200	15.005	0.100
485.300	-2.203	0.100
485.400	19.482	0.100
485.500	3.375	0.100
485.600	6.224	0.100
485.700	-4.351	0.100
485.800	23.677	0.101
485.900	-1.286	0.100
486.000	3.013	0.100
486.100	1.055	0.100
486.200	15.781	0.100
486.300	-9.915	0.100
486.400	5.106	0.100
486.500	19.810	0.100
486.600	-0.741	0.101
486.700	4.980	0.100
486.800	3.492	0.100
486.900	11.519	0.101
487.000	11.981	0.100
487.100	9.100	0.100
487.200	15.272	0.100
487.300	1.370	0.100
487.400	-7.937	0.100
487.500	3.543	0.100
487.600	3.399	0.100
487.700	10.646	0.100
487.800	2.695	0.100
487.900	9.503	0.100
488.000	5.237	0.100
488.100	9.939	0.100
488.200	3.743	0.100
488.300	20.198	0.100
488.400	10.487	0.100
488.500	1.465	0.100
488.600	2.531	0.100
488.700	14.309	0.100
488.800	15.776	0.100
488.900	0.299	0.100
489.000	5.784	0.100
489.100	9.504	0.100
489.200	8.451	0.100
489.300	13.133	0.101
489.400	11.629	0.100
489.500	20.932	0.100
489.600	8.618	0.100
489.700	12.280	0.100
489.800	2.465	0.100
489.900	20.915	0.100
490.000	14.976	0.100
490.100	9.776	0.100
490.200	2.568	0.100
490.300	17.177	0.101
490.400	0.344	0.100
490.500	5.977	0.100
490.600	11.660	0.100
490.700	9.494	0.100
490.800	13.021	0.100
490.900	9.079	0.101
491.000	6.674	0.100
491.100	6.283	0.100
491.200	-5.322	0.100
491.300	2.162	0.100
491.400	23.035	0.100
491.500	8.218	0.101
491.600	14.289	0.100
491.700	14.472	0.100
491.800	16.426	0.100
491.900	8.229	0.100
492.000	13.997	0.100
492.100	15.853	0.101
492.200	2.474	0.100
492.300	20.714	0.101
492.400	1.563	0.100
492.500	15.689	0.100
492.600	25.649	0.100
492.700	0.210	0.100
492.800	7.238	0.100
492.900	12.440	0.100
493.000	9.146	0.100
493.100	14.384	0.100
493.200	9.606	0.100
493.300	25.917	0.101
493.400	4.212	0.100
493.500	25.138	0.100
493.600	9.760	0.100
493.700	21.116	0.100
493.800	10.540	0.100
493.900	13.257	0.101
494.000	8.160	0.100
494.100	25.905	0.100
494.200	8.314	0.100
494.300	24.306	0.100
494.400	14.382	0.101
494.500	8.613	0.100
494.600	16.628	0.100
494.700	18.122	0.100
494.800	17.235	0.100
494.900	4.236	0.100
495.000	21.436	0.100
495.100	17.375	0.100
495.200	25.698	0.100
495.300	10.895	0.100
495.400	16.247	0.101
495.500	12.737	0.100
495.600	7.793	0.100
495.700	10.234	0.100
495.800	28.423	0.100
495.900	1.806	0.100
496.000	14.263	0.101
496.100	9.083	0.100
496.200	30.345	0.100
496.300	30.491	0.100
496.400	12.940	0.100
496.500	7.743	0.100
496.600	15.477	0.100
496.700	16.279	0.100
496.800	22.998	0.100
496.900	11.976	0.100
497.000	7.320	0.100
497.100	15.098	0.100
497.200	13.099	0.100
497.300	21.938	0.100
497.400	18.382	0.100
497.500	42.206	0.100
497.600	9.190	0.100
497.700	19.865	0.100
497.800	19.122	0.100
497.900	30.931	0.100
498.000	10.590	0.100
498.100	9.955	0.100
498.200	24.117	0.100
498.300	24.895	0.100
498.400	14.373	0.100
498.500	30.151	0.100
498.600	28.284	0.100
498.700	22.001	0.100
498.800	19.121	0.100
498.900	19.281	0.100
499.000	33.123	0.100
499.100	8.107	0.101
499.200	20.071	0.100
499.300	6.685	0.100
499.400	21.375	0.100
499.500	14.989	0.100
499.600	25.832	0.100
499.700	19.548	0.100
499.800	26.966	0.100
499.900	21.140	0.100
500.000	11.219	0.100
500.100	20.414	0.100
500.200	13.743	0.100
500.300	6.927	0.100
500.400	29.320	0.100
500.500	16.247	0.100
500.600	28.641	0.100
500.700	21.252	0.101
500.800	22.237	0.100
500.900	24.004	0.100
501.000	20.794	0.100
501.100	23.234	0.100
501.200	28.725	0.100
501.300	30.105	0.100
501.400	5.994	0.100
501.500	21.052	0.100
501.600	36.155	0.100
501.700	21.080	0.100
501.800	17.597	0.100
501.900	8.308	0.100
502.000	19.342	0.100
502.100	22.306	0.101
502.200	28.350	0.100
502.300	22.640	0.100
502.400	39.268	0.100
502.500	24.216	0.100
502.600	25.301	0.100
502.700	30.642	0.100
502.800	27.089	0.100
502.900	22.804	0.100
503.000	30.170	0.100
503.100	25.707	0.100
503.200	22.778	0.101
503.300	21.648	0.100
503.400	18.026	0.100
503.500	27.089	0.100
503.600	31.984	0.100
503.700	24.257	0.100
503.800	15.282	0.101
503.900	38.275	0.100
504.000	27.010	0.100
504.100	29.705	0.100
504.200	29.522	0.100
504.300	28.529	0.100
504.400	25.876	0.100
504.500	22.567	0.100
504.600	16.777	0.101
504.700	21.159	0.101
504.800	20.233	0.100
504.900	8.832	0.100
505.000	27.560	0.100
505.100	27.983	0.100
505.200	19.912	0.100
505.300	28.172	0.100
505.400	19.678	0.100
505.500	28.948	0.100
505.600	36.271	0.100
505.700	27.958	0.100
505.800	21.698	0.100
505.900	29.839	0.100
506.000	20.372	0.100
506.100	23.392	0.100
506.200	43.208	0.100
506.300	19.929	0.100
506.400	29.292	0.100
506.500	27.121	0.100
506.600	27.625	0.100
506.700	34.536	0.100
506.800	26.141	0.100
506.900	36.692	0.100
507.000	31.660	0.100
507.100	16.330	0.100
507.200	24.287	0.100
507.300	38.281	0.100
507.400	22.026	0.101
507.500	31.312	0.100
507.600	20.126	0.100
507.700	31.279	0.100
507.800	36.262	0.100
507.900	27.226	0.100
508.000	20.336	0.100
508.100	17.548	0.100
508.200	17.940	0.100
508.300	22.318	0.100
508.400	31.322	0.100
508.500	30.300	0.100
508.600	28.334	0.100
508.700	23.990	0.100
508.800	26.065	0.100
508.900	32.388	0.100
509.000	17.817	0.100
509.100	14.926	0.100
509.200	18.610	0.100
509.300	27.947	0.100
509.400	31.777	0.100
509.500	29.146	0.100
509.600	36.989	0.100
509.700	26.472	0.100
509.800	47.934	0.100
509.900	14.001	0.100
510.000	35.110	0.100
510.100	22.347	0.100
510.200	35.440	0.100
510.300	5.973	0.100
510.400	21.568	0.100
510.500	25.588	0.100
510.600	50.477	0.100
510.700	41.713	0.100
510.800	17.101	0.100
510.900	26.387	0.100
511.000	37.391	0.100
511.100	26.800	0.100
511.200	25.098	0.100
511.300	30.205	0.100
511.400	19.107	0.100
511.500	34.849	0.100
511.600	25.480	0.100
511.700	34.117	0.100
511.800	25.632	0.100
511.900	29.916	0.100
512.000	27.407	0.100
512.100	32.258	0.100
512.200	23.494	0.100
512.300	24.880	0.100
512.400	33.913	0.100
512.500	32.823	0.100
512.600	20.874	0.100
512.700	31.221	0.100
512.800	27.380	0.100
512.900	14.862	0.100
513.000	29.198	0.100
513.100	32.992	0.100
513.200	27.658	0.100
513.300	25.506	0.100
513.400	27.264	0.100
513.500	19.141	0.100
513.600	34.358	0.100
513.700	27.819	0.100
513.800	25.404	0.100
513.900	34.064	0.100
514.000	32.822	0.100
514.100	28.413	0.100
514.200	19.382	0.100
514.300	33.246	0.100
514.400	33.400	0.100
514.500	15.522	0.100
514.600	35.764	0.100
514.700	44.613	0.100
514.800	30.752	0.100
514.900	29.654	0.100
515.000	29.053	0.100
515.100	33.765	0.100
515.200	47.544	0.100
515.300	26.184	0.100
515.400	25.338	0.100
515.500	22.722	0.100
515.600	32.734	0.100
515.700	18.145	0.100
515.800	11.298	0.100
515.900	31.150	0.100
516.000	19.985	0.100
516.100	43.066	0.100
516.200	27.351	0.100
516.300	30.637	0.100
516.400	30.241	0.100
516.500	28.825	0.100
516.600	29.425	0.100
516.700	25.754	0.100
516.800	49.679	0.100
516.900	27.115	0.100
517.000	27.146	0.100
517.100	30.135	0.100
517.200	22.566	0.100
517.300	30.842	0.100
517.400	33.748	0.100
517.500	32.350	0.100
517.600	22.772	0.100
517.700	33.171	0.100
517.800	34.182	0.100
517.900	30.989	0.100
518.000	34.599	0.100
518.100	31.362	0.100
518.200	25.512	0.100
518.300	27.412	0.100
518.400	28.400	0.101
518.500	36.069	0.100
518.600	24.974	0.100
518.700	26.133	0.100
518.800	18.859	0.100
518.900	26.429	0.100
519.000	23.744	0.100
519.100	39.211	0.100
519.200	37.344	0.100
519.300	19.385	0.100
519.400	30.252	0.100
519.500	22.730	0.100
519.600	36.757	0.100
519.700	35.093	0.100
519.800	25.284	0.100
519.900	34.374	0.100
520.000	25.054	0.100
520.100	30.542	0.100
520.200	32.313	0.100
520.300	34.264	0.100
520.400	29.593	0.100
520.500	44.051	0.100
520.600	22.973	0.100
520.700	38.534	0.100
520.800	22.112	0.100
520.900	23.912	0.100
521.000	31.911	0.100
521.100	24.713	0.100
521.200	33.897	0.100
521.300	26.893	0.100
521.400	27.067	0.100
521.500	27.328	0.100
521.600	30.171	0.100
521.700	34.475	0.100
521.800	33.887	0.100
521.900	26.770	0.100
522.000	24.884	0.100
522.100	32.087	0.100
522.200	27.154	0.100
522.300	38.389	0.100
522.400	21.552	0.100
522.500	39.174	0.100
522.600	29.167	0.100
522.700	31.847	0.100
522.800	47.516	0.100
522.900	19.853	0.100
523.000	31.542	0.100
523.100	39.626	0.100
523.200	32.201	0.100
523.300	38.994	0.100
523.400	31.803	0.100
523.500	34.983	0.100
523.600	30.164	0.100
523.700	28.287	0.100
523.800	50.721	0.100
523.900	12.484	0.100
524.000	19.893	0.100
524.100	34.512	0.100
524.200	27.214	0.100
524.300	26.525	0.100
524.400	28.556	0.100
524.500	30.003	0.100
524.600	38.124	0.100
524.700	29.060	0.100
524.800	26.955	0.100
524.900	24.461	0.100
525.000	31.967	0.100
525.100	30.902	0.100
525.200	24.773	0.100
525.300	29.612	0.100
525.400	37.417	0.100
525.500	40.721	0.100
525.600	33.911	0.100
525.700	26.975	0.100
525.800	28.506	0.100
525.900	27.572	0.100
526.000	27.357	0.100
526.100	27.408	0.100
526.200	40.225	0.100
526.300	47.943	0.100
526.400	27.230	0.101
526.500	34.917	0.100
526.600	15.531	0.100
526.700	34.051	0.100
526.800	38.371	0.100
526.900	22.975	0.100
527.000	26.693	0.100
527.100	45.387	0.100
527.200	31.112	0.100
527.300	45.982	0.100
527.400	30.635	0.100
527.500	32.294	0.100
527.600	48.329	0.100
527.700	21.900	0.100
527.800	31.131	0.100
527.900	37.787	0.100
528.000	28.307	0.100
528.100	33.098	0.100
528.200	38.606	0.100
528.300	30.301	0.100
528.400	32.123	0.100
528.500	25.158	0.100
528.600	26.445	0.100
528.700	29.093	0.100
528.800	27.420	0.100
528.900	40.318	0.100
529.000	18.311	0.100
529.100	33.907	0.100
529.200	33.342	0.100
529.300	29.887	0.100
529.400	24.644	0.100
529.500	23.815	0.100
529.600	31.256	0.100
529.700	40.864	0.100
529.800	21.901	0.100
529.900	35.353	0.100
530.000	16.756	0.100
530.100	34.086	0.100
530.200	39.164	0.100
530.300	31.240	0.100
530.400	20.458	0.100
530.500	29.320	0.100
530.600	31.704	0.100
530.700	29.409	0.100
530.800	32.757	0.100
530.900	27.273	0.100
531.000	31.317	0.100
531.100	32.908	0.100
531.200	21.186	0.100
531.300	27.077	0.100
531.400	44.595	0.100
531.500	21.269	0.100
531.600	28.247	0.100
531.700	17.196	0.100
531.800	27.483	0.100
531.900	31.574	0.100
532.000	27.396	0.100
532.100	21.967	0.100
532.200	24.203	0.100
532.300	38.868	0.100
532.400	26.559	0.100
532.500	40.988	0.100
532.600	31.439	0.100
532.700	30.452	0.100
532.800	28.952	0.100
532.900	19.189	0.100
533.000	25.533	0.100
533.100	29.691	0.100
533.200	39.131	0.100
533.300	25.357	0.100
533.400	24.426	0.100
533.500	40.097	0.100
533.600	39.078	0.100
533.700	26.753	0.100
533.800	28.860	0.100
533.900	42.426	0.100
534.000	25.550	0.100
534.100	49.940	0.100
534.200	41.904	0.100
534.300	26.743	0.100
534.400	32.359	0.100
534.500	33.507	0.100
534.600	26.335	0.100
534.700	18.016	0.100
534.800	22.839	0.100
534.900	19.959	0.100
535.000	28.226	0.100
535.100	30.932	0.100
535.200	28.073	0.100
535.300	45.024	0.100
535.400	28.029	0.100
535.500	30.004	0.100
535.600	24.584	0.100
535.700	22.819	0.100
535.800	28.211	0.100
535.900	28.075	0.100
536.000	32.628	0.100
536.100	28.056	0.100
536.200	29.900	0.100
536.300	16.487	0.100
536.400	25.899	0.100
536.500	32.082	0.100
536.600	48.355	0.100
536.700	44.694	0.100
536.800	23.548	0.100
536.900	38.846	0.100
537.000	33.165	0.100
537.100	33.710	0.100
537.200	35.853	0.100
537.300	29.739	0.100
537.400	20.736	0.100
537.500	15.348	0.100
537.600	26.529	0.100
537.700	19.387	0.100
537.800	46.623	0.100
537.900	20.525	0.100
538.000	38.766	0.100
538.100	20.414	0.100
538.200	24.288	0.100
538.300	24.949	0.100
538.400	36.435	0.100
538.500	31.426	0.100
538.600	34.425	0.100
538.700	19.827	0.100
538.800	27.206	0.100
538.900	30.428	0.100
539.000	39.977	0.100
539.100	27.936	0.100
539.200	24.313	0.100
539.300	37.808	0.100
539.400	17.038	0.100
539.500	28.515	0.100
539.600	19.521	0.100
539.700	35.831	0.100
539.800	27.575	0.100
539.900	36.636	0.100
540.000	23.000	0.100
540.100	26.916	0.100
540.200	25.853	0.100
540.300	38.952	0.100
540.400	42.545	0.100
540.500	29.520	0.101
540.600	12.144	0.100
540.700	28.896	0.100
540.800	25.598	0.100
540.900	24.446	0.100
541.000	9.617	0.100
541.100	19.819	0.100
541.200	13.805	0.100
541.300	15.839	0.101
541.400	14.775	0.100
541.500	15.990	0.100
541.600	18.681	0.100
541.700	5.516	0.100
541.800	9.261	0.100
541.900	20.068	0.100
542.000	-6.662	0.100
542.100	3.865	0.100
542.200	1.269	0.100
542.300	8.776	0.100
542.400	-2.120	0.100
542.500	6.097	0.100
542.600	-8.566	0.100
542.700	-8.200	0.100
542.800	1.502	0.100
542.900	-10.014	0.100
543.000	1.154	0.100
543.100	-5.333	0.100
543.200	-10.180	0.100
543.300	-8.367	0.100
543.400	4.141	0.100
543.500	-6.842	0.100
543.600	-19.722	0.100
543.700	-1.700	0.100
543.800	-8.971	0.100
543.900	5.827	0.100
544.000	-12.824	0.100
544.100	-15.038	0.100
544.200	-14.063	0.100
544.300	-1.675	0.100
544.400	-16.440	0.100
544.500	-6.856	0.100
544.600	-16.174	0.100
544.700	-1.537	0.100
544.800	-13.917	0.100
544.900	-17.928	0.100
545.000	4.597	0.100
545.100	-4.854	0.100
545.200	-20.336	0.100
545.300	-16.055	0.100
545.400	1.574	0.100
545.500	-16.376	0.100
545.600	-15.259	0.100
545.700	-6.546	0.100
545.800	-3.933	0.101
545.900	-8.742	0.100
546.000	-12.306	0.100
546.100	-11.843	0.100
546.200	-14.282	0.100
546.300	-10.353	0.100
546.400	-28.586	0.100
546.500	-17.918	0.100
546.600	-14.997	0.100
546.700	-9.807	0.101
546.800	-18.887	0.100
546.900	-23.258	0.100
547.000	-12.706	0.100
547.100	-15.705	0.100
547.200	-15.185	0.100
547.300	-20.955	0.100
547.400	4.397	0.100
547.500	-16.564	0.100
547.600	-14.031	0.100
547.700	-7.458	0.100
547.800	-6.979	0.101
547.900	-23.662	0.100
548.000	-5.487	0.100
548.100	-25.250	0.100
548.200	-13.645	0.100
548.300	-11.541	0.100
548.400	-23.964	0.100
548.500	-26.599	0.100
548.600	1.432	0.100
548.700	-13.821	0.100
548.800	9.184	0.100
548.900	-12.925	0.100
549.000	-2.917	0.100
549.100	-18.991	0.100
549.200	-14.357	0.100
549.300	-14.993	0.100
549.400	2.138	0.100
549.500	-13.154	0.100
549.600	-16.539	0.100
549.700	-2.059	0.100
549.800	-10.660	0.100
549.900	-26.761	0.100
550.000	-11.033	0.100
550.100	-19.491	0.100
550.200	-4.218	0.100
550.300	-17.648	0.100
550.400	-23.414	0.100
550.500	-23.460	0.100
550.600	-12.179	0.100
550.700	-12.564	0.100
550.800	-15.773	0.100
550.900	-23.769	0.100
551.000	-13.971	0.100
551.100	-0.116	0.100
551.200	-25.719	0.100
551.300	-24.560	0.100
551.400	-12.806	0.100
551.500	-22.258	0.100
551.600	-20.805	0.100
551.700	-16.449	0.100
551.800	-22.318	0.100
551.900	-21.186	0.100
552.000	-10.927	0.100
552.100	-23.661	0.100
552.200	-11.692	0.100
552.300	-18.218	0.100
552.400	-17.316	0.100
552.500	-26.548	0.100
552.600	-19.549	0.100
552.700	-4.640	0.100
552.800	-13.313	0.100
552.900	-12.660	0.100
553.000	-10.282	0.100
553.100	-10.388	0.100
553.200	-19.729	0.100
553.300	-20.110	0.100
553.400	-20.488	0.100
553.500	-16.958	0.100
553.600	-13.571	0.100
553.700	-17.742	0.100
553.800	-6.509	0.100
553.900	-15.640	0.100
554.000	-27.847	0.100
554.100	-18.902	0.100
554.200	-10.126	0.100
554.300	-22.019	0.100
554.400	-9.341	0.100
554.500	-26.167	0.100
554.600	-19.620	0.100
554.700	-17.849	0.100
554.800	-19.141	0.100
554.900	-14.718	0.100
555.000	-28.924	0.100
555.100	-7.685	0.100
555.200	-16.584	0.100
555.300	-8.905	0.100
555.400	-10.932	0.100
555.500	-28.087	0.100
555.600	-27.866	0.100
555.700	-11.401	0.100
555.800	-1.750	0.100
555.900	-21.462	0.100
556.000	-14.631	0.100
556.100	-20.913	0.100
556.200	-24.984	0.100
556.300	-22.029	0.100
556.400	-17.712	0.100
556.500	-16.619	0.100
556.600	-22.271	0.100
556.700	-25.001	0.100
556.800	-20.746	0.100
556.900	-11.478	0.100
557.000	-18.615	0.100
557.100	-22.681	0.100
557.200	-9.295	0.100
557.300	-17.525	0.100
557.400	-11.100	0.100
557.500	-15.982	0.100
557.600	-23.934	0.100
557.700	-28.579	0.100
557.800	-15.043	0.100
557.900	-15.403	0.100
558.000	-31.610	0.100
558.100	-36.823	0.100
558.200	-24.341	0.100
558.300	-8.991	0.100
558.400	-17.600	0.100
558.500	-18.492	0.100
558.600	-21.417	0.100
558.700	-3.831	0.100
558.800	-18.452	0.100
558.900	-27.437	0.100
559.000	-16.715	0.100
559.100	-15.777	0.100
559.200	-21.084	0.100
559.300	-26.451	0.100
559.400	-4.619	0.100
559.500	-8.871	0.100
559.600	-35.012	0.100
559.700	-15.104	0.100
559.800	-23.724	0.100
559.900	-11.652	0.100
560.000	-28.086	0.100
560.100	-26.327	0.100
560.200	-21.937	0.100
560.300	-21.522	0.100
560.400	-16.393	0.100
560.500	-32.764	0.100
560.600	-28.915	0.100
560.700	-6.654	0.100
560.800	-13.841	0.100
560.900	-25.952	0.100
561.000	-11.972	0.100
561.100	-13.811	0.100
561.200	-14.348	0.100
561.300	-15.841	0.100
561.400	-17.501	0.100
561.500	-18.190	0.100
561.600	-21.465	0.100
561.700	-22.420	0.100
561.800	-17.966	0.100
561.900	-25.427	0.100
562.000	-14.882	0.100
562.100	-18.146	0.100
562.200	-16.429	0.100
562.300	-18.932	0.100
562.400	-16.090	0.100
562.500	-27.481	0.100
562.600	-11.855	0.100
562.700	-16.897	0.100
562.800	-15.503	0.100
562.900	-15.804	0.100
563.000	-12.530	0.100
563.100	-23.925	0.100
563.200	-21.003	0.100
563.300	-13.107	0.100
563.400	-18.498	0.100
563.500	-6.141	0.100
563.600	-25.056	0.100
563.700	-24.543	0.100
563.800	-15.996	0.100
563.900	-19.282	0.100
564.000	-21.017	0.100
564.100	-23.528	0.100
564.200	-13.929	0.100
564.300	-19.229	0.100
564.400	-26.780	0.100
564.500	-21.488	0.100
564.600	-27.057	0.100
564.700	-16.044	0.100
564.800	-18.497	0.100
564.900	-22.736	0.100
565.000	-24.961	0.100
565.100	-29.236	0.100
565.200	-23.882	0.100
565.300	-19.192	0.100
565.400	-13.342	0.100
565.500	-21.783	0.100
565.600	-16.865	0.100
565.700	-22.341	0.100
565.800	-19.093	0.100
565.900	-25.098	0.100
566.000	-19.206	0.100
566.100	-13.546	0.100
566.200	-12.345	0.100
566.300	-4.785	0.100
566.400	-25.468	0.100
566.500	-13.531	0.100
566.600	-21.243	0.100
566.700	-21.626	0.100
566.800	-16.687	0.100
566.900	-28.484	0.100
567.000	-17.664	0.100
567.100	-26.224	0.100
567.200	-17.948	0.100
567.300	-15.475	0.100
567.400	-5.695	0.100
567.500	-20.487	0.100
567.600	-23.553	0.100
567.700	-22.052	0.100
567.800	-15.979	0.100
567.900	-11.191	0.100
568.000	-22.848	0.100
568.100	-13.767	0.100
568.200	-17.903	0.100
568.300	-13.752	0.100
568.400	-5.753	0.100
568.500	-25.162	0.100
568.600	-20.363	0.100
568.700	-12.034	0.100
568.800	-10.972	0.100
568.900	-39.147	0.100
569.000	-7.939	0.100
569.100	-30.557	0.100
569.200	-29.949	0.100
569.300	-25.116	0.100
569.400	-9.496	0.100
569.500	-16.410	0.100
569.600	-11.551	0.100
569.700	-10.569	0.100
569.800	-10.283	0.100
569.900	-22.372	0.100
570.000	-19.388	0.100
570.100	-19.053	0.100
570.200	-14.700	0.100
570.300	-34.236	0.100
570.400	-12.871	0.100
570.500	-15.145	0.100
570.600	-11.261	0.100
570.700	-4.686	0.100
570.800	-12.947	0.100
570.900	-14.875	0.100
571.000	-1.690	0.100
571.100	-28.790	0.100
571.200	-17.025	0.100
571.300	-22.340	0.100
571.400	-18.176	0.100
571.500	-26.784	0.100
571.600	-20.040	0.100
571.700	-17.898	0.100
571.800	-21.646	0.100
571.900	-22.753	0.100
572.000	-21.422	0.100
572.100	-13.012	0.100
572.200	-11.478	0.100
572.300	-22.587	0.100
572.400	-6.422	0.100
572.500	-21.499	0.100
572.600	-20.804	0.100
572.700	-7.971	0.100
572.800	-30.237	0.100
572.900	-6.471	0.100
573.000	-28.513	0.100
573.100	-14.106	0.100
573.200	-12.074	0.100
573.300	-18.531	0.100
573.400	-20.873	0.100
573.500	-19.201	0.100
573.600	-11.126	0.100
573.700	-30.190	0.100
573.800	-3.982	0.100
573.900	-16.432	0.100
574.000	-21.048	0.100
574.100	-22.151	0.100
574.200	-30.858	0.100
574.300	-12.371	0.100
574.400	-15.484	0.100
574.500	-18.356	0.100
574.600	-22.972	0.100
574.700	-26.825	0.100
574.800	-25.815	0.100
574.900	-23.603	0.100
575.000	-10.888	0.100
575.100	-25.442	0.100
575.200	-13.501	0.100
575.300	-15.436	0.100
575.400	-31.715	0.100
575.500	-15.519	0.100
575.600	-21.274	0.100
575.700	1.754	0.100
575.800	-17.236	0.100
575.900	-22.181	0.100
576.000	-13.584	0.100
576.100	-22.882	0.100
576.200	-28.453	0.100
576.300	-16.144	0.100
576.400	-16.323	0.100
576.500	-13.790	0.100
576.600	-25.564	0.100
576.700	-8.347	0.100
576.800	-8.336	0.100
576.900	-17.349	0.100
577.000	-25.744	0.100
577.100	-19.557	0.100
577.200	-13.218	0.100
577.300	-20.393	0.100
577.400	7.771	0.100
577.500	-23.517	0.100
577.600	-16.909	0.100
577.700	-25.691	0.100
577.800	-27.862	0.100
577.900	-10.789	0.100
578.000	-13.107	0.100
578.100	-17.257	0.100
578.200	-4.283	0.100
578.300	-17.869	0.100
578.400	-9.961	0.100
578.500	-24.081	0.100
578.600	-17.345	0.100
578.700	-30.920	0.100
578.800	-17.159	0.100
578.900	-13.065	0.100
579.000	-4.733	0.100
579.100	-30.366	0.100
579.200	-12.689	0.100
579.300	-11.326	0.100
579.400	-4.111	0.100
579.500	-9.359	0.100
579.600	-11.606	0.100
579.700	-14.481	0.100
579.800	-5.530	0.100
579.900	-15.164	0.100
580.000	-16.950	0.100
580.100	-9.589	0.100
580.200	-22.934	0.100
580.300	-21.381	0.100
580.400	-1.955	0.100
580.500	-23.806	0.100
580.600	-13.697	0.100
580.700	-17.962	0.100
580.800	-15.041	0.100
580.900	-23.750	0.100
581.000	-11.165	0.100
581.100	-21.472	0.100
581.200	-27.029	0.100
581.300	-20.257	0.100
581.400	-17.638	0.100
581.500	-15.625	0.100
581.600	-13.424	0.100
581.700	-26.450	0.100
581.800	-9.062	0.100
581.900	-32.621	0.100
582.000	-4.446	0.100
582.100	-10.719	0.100
582.200	-26.010	0.100
582.300	-18.631	0.100
582.400	-18.523	0.100
582.500	-15.960	0.100
582.600	-16.345	0.100
582.700	-9.212	0.100
582.800	-13.337	0.100
582.900	-21.375	0.100
583.000	-23.911	0.100
583.100	-16.131	0.100
583.200	-1.260	0.100
583.300	-10.796	0.100
583.400	-8.737	0.100
583.500	-21.703	0.100
583.600	-6.738	0.100
583.700	-25.837	0.100
583.800	-28.897	0.100
583.900	-4.730	0.100
584.000	-7.961	0.100
584.100	-27.047	0.100
584.200	-8.992	0.100
584.300	-13.017	0.100
584.400	-13.592	0.100
584.500	-17.294	0.100
584.600	-8.485	0.100
584.700	-21.342	0.100
584.800	-9.527	0.100
584.900	-8.356	0.100
585.000	-15.222	0.100
585.100	-25.758	0.100
585.200	-5.756	0.100
585.300	-15.430	0.100
585.400	-18.697	0.100
585.500	-16.383	0.100
585.600	-13.718	0.100
585.700	-15.690	0.100
585.800	-13.352	0.100
585.900	-18.606	0.100
586.000	-22.435	0.100
586.100	-27.144	0.100
586.200	-9.267	0.100
586.300	-19.505	0.100
586.400	-9.882	0.100
586.500	-25.587	0.100
586.600	-16.332	0.100
586.700	-15.999	0.100
586.800	-23.101	0.100
586.900	-19.350	0.100
587.000	-15.038	0.100
587.100	-13.849	0.100
587.200	-19.013	0.100
587.300	-5.298	0.100
587.400	-17.708	0.100
587.500	-6.544	0.100
587.600	-20.909	0.100
587.700	-13.348	0.100
587.800	-17.400	0.100
587.900	-13.814	0.100
588.000	-18.678	0.100
588.100	-0.722	0.100
588.200	-19.719	0.100
588.300	-13.644	0.100
588.400	-13.535	0.100
588.500	-21.807	0.100
588.600	-10.828	0.100
588.700	-22.426	0.100
588.800	-3.014	0.100
588.900	-11.346	0.100
589.000	-32.423	0.100
589.100	-17.696	0.100
589.200	1.148	0.100
589.300	-25.779	0.100
589.400	-21.910	0.100
589.500	-5.123	0.100
589.600	-21.268	0.100
589.700	-2.852	0.100
589.800	-8.302	0.100
589.900	-24.310	0.100
590.000	-21.957	0.100
590.100	-11.457	0.100
590.200	-4.736	0.100
590.300	-16.751	0.100
590.400	-12.724	0.100
590.500	-25.524	0.100
590.600	-13.719	0.100
590.700	-8.090	0.100
590.800	-1.474	0.100
590.900	-12.368	0.100
591.000	-14.986	0.100
591.100	-13.575	0.100
591.200	-18.138	0.100
591.300	-9.927	0.100
591.400	-11.530	0.100
591.500	-17.837	0.100
591.600	-14.279	0.100
591.700	-19.483	0.100
591.800	-13.652	0.100
591.900	-13.242	0.100
592.000	-22.086	0.100
592.100	-24.325	0.100
592.200	-13.487	0.100
592.300	-14.468	0.100
592.400	-14.666	0.100
592.500	-16.555	0.100
592.600	-5.902	0.100
592.700	-15.066	0.100
592.800	-17.562	0.100
592.900	-16.591	0.100
593.000	-16.866	0.100
593.100	-8.457	0.100
593.200	-16.347	0.100
593.300	-26.373	0.100
593.400	-1.327	0.100
593.500	-10.898	0.100
593.600	-13.735	0.100
593.700	-9.763	0.100
593.800	-23.475	0.100
593.900	-14.110	0.100
594.000	-20.937	0.100
594.100	-15.444	0.100
594.200	-24.620	0.100
594.300	-8.133	0.100
594.400	-0.911	0.100
594.500	-4.154	0.100
594.600	-18.266	0.100
594.700	1.060	0.100
594.800	-23.568	0.100
594.900	-35.866	0.100
595.000	0.886	0.100
595.100	-10.701	0.100
595.200	-10.965	0.100
595.300	0.719	0.100
595.400	-15.967	0.100
595.500	-13.087	0.100
595.600	-22.620	0.100
595.700	-12.005	0.100
595.800	-2.694	0.100
595.900	-28.490	0.100
596.000	-15.212	0.100
596.100	-14.998	0.100
596.200	-11.015	0.100
596.300	-14.460	0.100
596.400	-16.054	0.100
596.500	-9.634	0.100
596.600	-24.877	0.100
596.700	-21.421	0.100
596.800	-15.875	0.100
596.900	-28.958	0.100
597.000	-12.948	0.100
597.100	-8.942	0.100
597.200	-21.307	0.100
597.300	-8.557	0.100
597.400	-7.718	0.100
597.500	-9.336	0.100
597.600	-30.681	0.100
597.700	-15.298	0.100
597.800	-19.718	0.100
597.900	-21.767	0.100
598.000	-0.303	0.100
598.100	-16.923	0.100
598.200	-16.899	0.100
598.300	-11.535	0.100
598.400	-16.785	0.100
598.500	-6.331	0.100
598.600	-30.313	0.100
598.700	-12.414	0.100
598.800	-5.955	0.100
598.900	-10.342	0.100
599.000	-11.516	0.100
599.100	-18.289	0.100
599.200	-20.648	0.100
599.300	-1.702	0.100
599.400	-18.084	0.100
599.500	-12.827	0.100
599.600	-34.679	0.100
599.700	5.962	0.100
599.800	-24.918	0.100
599.900	-9.410	0.100
600.000	-25.358	0.100
600.100	-18.131	0.100
600.200	-30.265	0.100
600.300	-6.277	0.100
600.400	-15.204	0.100
600.500	-4.509	0.100
600.600	-11.578	0.100
600.700	-11.403	0.100
600.800	-17.629	0.100
600.900	-18.681	0.100
601.000	-5.702	0.100
601.100	-4.950	0.100
601.200	-18.067	0.100
601.300	-3.013	0.100
601.400	-25.196	0.100
601.500	-5.160	0.100
601.600	-3.979	0.100
601.700	-24.372	0.100
601.800	-18.249	0.100
601.900	-21.607	0.100
602.000	-9.568	0.100
602.100	-19.478	0.100
602.200	-3.154	0.100
602.300	-18.509	0.100
602.400	-2.189	0.100
602.500	-14.020	0.100
602.600	-17.179	0.100
602.700	-18.794	0.100
602.800	-24.062	0.100
602.900	-13.507	0.100
603.000	-14.654	0.100
603.100	-5.151	0.100
603.200	-24.155	0.100
603.300	-16.239	0.100
603.400	-11.597	0.100
603.500	-8.895	0.100
603.600	-13.284	0.100
603.700	-1.526	0.100
603.800	-2.172	0.100
603.900	-22.938	0.100
604.000	-19.412	0.100
604.100	2.863	0.100
604.200	-12.775	0.100
604.300	-22.148	0.100
604.400	-26.564	0.100
604.500	-8.092	0.100
604.600	-12.671	0.100
604.700	-6.055	0.100
604.800	-6.088	0.100
604.900	-15.650	0.100
605.000	-6.010	0.100
605.100	-12.658	0.100
605.200	-26.772	0.100
605.300	-12.682	0.100
605.400	-16.914	0.100
605.500	-17.689	0.100
605.600	-9.000	0.100
605.700	-10.266	0.100
605.800	-3.857	0.100
605.900	-16.043	0.100
606.000	-22.872	0.100
606.100	-11.645	0.100
606.200	-28.738	0.100
606.300	-10.493	0.100
606.400	-24.089	0.100
606.500	-15.816	0.100
606.600	-12.715	0.100
606.700	-17.678	0.100
606.800	-13.313	0.100
606.900	-2.013	0.100
607.000	-9.738	0.100
607.100	-15.862	0.100
607.200	-15.066	0.100
607.300	-22.090	0.100
607.400	-17.996	0.100
607.500	-4.994	0.100
607.600	-11.499	0.100
607.700	-27.840	0.100
607.800	-15.211	0.100
607.900	-13.142	0.100
608.000	-21.782	0.100
608.100	-11.210	0.100
608.200	-9.432	0.100
608.300	-2.215	0.100
608.400	-15.903	0.100
608.500	-17.416	0.100
608.600	-18.032	0.100
608.700	-7.954	0.100
608.800	-22.789	0.100
608.900	-13.325	0.100
609.000	-22.809	0.100
609.100	-8.115	0.100
609.200	-5.658	0.100
609.300	-9.163	0.100
609.400	-4.060	0.100
609.500	-5.241	0.100
609.600	-12.760	0.100
609.700	-8.772	0.100
609.800	-8.652	0.100
609.900	-26.478	0.100
610.000	-11.951	0.100
610.100	-11.128	0.100
610.200	2.879	0.100
610.300	-8.555	0.100
610.400	-15.708	0.100
610.500	-20.262	0.100
610.600	-22.930	0.100
610.700	-17.960	0.100
610.800	-22.310	0.100
610.900	-18.230	0.100
611.000	-13.952	0.100
611.100	-6.730	0.100
611.200	-16.943	0.100
611.300	-18.149	0.100
611.400	-11.200	0.100
611.500	-13.520	0.100
611.600	-7.730	0.100
611.700	-21.003	0.100
611.800	-19.392	0.100
611.900	4.453	0.100
612.000	-4.310	0.100
612.100	-19.466	0.100
612.200	-24.577	0.100
612.300	-10.260	0.100
612.400	-12.342	0.100
612.500	-9.259	0.100
612.600	-14.748	0.100
612.700	-12.897	0.100
612.800	-12.468	0.100
612.900	-28.379	0.100
613.000	-2.365	0.100
613.100	-3.877	0.100
613.200	-9.480	0.100
613.300	-3.288	0.100
613.400	-31.178	0.100
613.500	-9.279	0.100
613.600	-24.927	0.100
613.700	-9.153	0.100
613.800	-16.503	0.100
613.900	-7.599	0.100
614.000	-22.654	0.100
614.100	-16.481	0.100
614.200	-12.603	0.100
614.300	-3.134	0.100
614.400	-20.390	0.100
614.500	-15.626	0.100
614.600	-16.810	0.100
614.700	-4.577	0.100
614.800	-17.670	0.100
614.900	-14.674	0.100
615.000	-23.122	0.100
615.100	-15.867	0.100
615.200	-10.001	0.100
615.300	-14.459	0.100
615.400	-21.543	0.100
615.500	-12.765	0.100
615.600	-17.147	0.100
615.700	-9.400	0.100
615.800	-11.755	0.100
615.900	-22.237	0.100
616.000	-19.285	0.100
616.100	-10.682	0.100
616.200	-14.900	0.100
616.300	-8.088	0.100
616.400	-9.407	0.100
616.500	-13.387	0.100
616.600	-16.530	0.100
616.700	-18.330	0.100
616.800	-14.200	0.100
616.900	-21.908	0.100
617.000	-28.763	0.100
617.100	-17.827	0.100
617.200	-13.313	0.100
617.300	-15.945	0.100
617.400	-18.238	0.100
617.500	-8.847	0.100
617.600	-24.736	0.100
617.700	-20.024	0.100
617.800	-24.210	0.100
617.900	-8.263	0.100
618.000	-2.394	0.100
618.100	-20.023	0.100
618.200	-12.692	0.100
618.300	-4.275	0.100
618.400	-6.630	0.100
618.500	-28.356	0.100
618.600	-10.452	0.100
618.700	-13.274	0.100
618.800	-1.642	0.100
618.900	-14.210	0.100
619.000	-26.125	0.100
619.100	-25.911	0.100
619.200	-6.132	0.100
619.300	-10.436	0.100
619.400	2.612	0.100
619.500	-25.861	0.100
619.600	-20.711	0.100
619.700	-7.871	0.100
619.800	-18.173	0.100
619.900	-14.524	0.100
620.000	-2.202	0.100
620.100	-14.021	0.100
620.200	-16.902	0.100
620.300	-8.920	0.100
620.400	-27.368	0.100
620.500	-7.601	0.100
620.600	-19.600	0.100
620.700	-4.889	0.100
620.800	-14.560	0.100
620.900	-18.764	0.100
621.000	-9.014	0.100
621.100	-10.524	0.100
621.200	-21.728	0.100
621.300	0.592	0.100
621.400	-18.548	0.100
621.500	-14.041	0.100
621.600	-3.099	0.100
621.700	-18.075	0.100
621.800	-12.245	0.100
621.900	-11.458	0.100
622.000	-6.167	0.100
622.100	-15.242	0.100
622.200	-11.357	0.100
622.300	-17.945	0.100
622.400	-19.710	0.100
622.500	-16.696	0.100
622.600	-8.458	0.100
622.700	-5.311	0.100
622.800	-29.567	0.100
622.900	-12.580	0.100
623.000	-15.877	0.100
623.100	-16.007	0.100
623.200	-13.543	0.100
623.300	-24.032	0.100
623.400	-10.455	0.100
623.500	-6.098	0.100
623.600	-2.288	0.100
623.700	-8.778	0.100
623.800	-13.907	0.100
623.900	-14.934	0.100
624.000	-22.785	0.100
624.100	-19.544	0.100
624.200	-7.534	0.100
624.300	-15.900	0.100
624.400	-13.924	0.100
624.500	-7.497	0.100
624.600	-26.785	0.100
624.700	-11.798	0.100
624.800	-3.821	0.100
624.900	-6.831	0.100
625.000	-21.472	0.100
625.100	-3.930	0.100
625.200	-12.917	0.100
625.300	-16.049	0.100
625.400	-15.938	0.100
625.500	-7.453	0.100
625.600	-8.337	0.100
625.700	-20.924	0.100
625.800	-16.109	0.100
625.900	-5.171	0.100
626.000	4.012	0.100
626.100	-17.391	0.100
626.200	-25.152	0.100
626.300	-7.511	0.100
626.400	-9.177	0.100
626.500	-32.604	0.100
626.600	0.827	0.100
626.700	-12.523	0.100
626.800	-5.066	0.100
626.900	-4.306	0.100
627.000	-11.783	0.100
627.100	-7.682	0.100
627.200	-16.537	0.100
627.300	-15.768	0.100
627.400	-13.562	0.100
627.500	-14.188	0.100
627.600	-10.685	0.100
627.700	-16.600	0.100
627.800	-22.184	0.100
627.900	-5.613	0.100
628.000	-4.226	0.100
628.100	-21.321	0.100
628.200	-13.387	0.100
628.300	-6.995	0.100
628.400	-6.997	0.100
628.500	-6.092	0.100
628.600	-20.814	0.100
628.700	-8.469	0.100
628.800	-15.266	0.100
628.900	-13.626	0.100
629.000	-6.124	0.100
629.100	-20.942	0.100
629.200	-7.620	0.100
629.300	-16.947	0.100
629.400	-18.635	0.100
629.500	-10.892	0.100
629.600	-19.348	0.100
629.700	-6.067	0.100
629.800	-13.072	0.100
629.900	-9.455	0.100
630.000	-17.880	0.100
630.100	-14.430	0.100
630.200	-21.169	0.100
630.300	-17.026	0.100
630.400	-11.210	0.100
630.500	-15.806	0.100
630.600	0.249	0.100
630.700	-5.515	0.100
630.800	-10.847	0.100
630.900	4.234	0.100
631.000	-4.419	0.100
631.100	-7.883	0.100
631.200	3.819	0.100
631.300	0.358	0.101
631.400	-1.409	0.100
631.500	-6.279	0.100
631.600	-1.598	0.100
631.700	1.935	0.100
631.800	-5.938	0.100
631.900	-19.116	0.100
632.000	9.624	0.100
632.100	7.092	0.100
632.200	-2.496	0.100
632.300	8.637	0.100
632.400	7.593	0.100
632.500	8.851	0.100
632.600	-4.905	0.100
632.700	13.135	0.100
632.800	4.699	0.100
632.900	-6.518	0.100
633.000	9.244	0.100
633.100	-2.109	0.100
633.200	-2.621	0.100
633.300	4.586	0.100
633.400	7.894	0.100
633.500	21.394	0.100
633.600	20.437	0.100
633.700	-13.092	0.100
633.800	1.616	0.100
633.900	14.271	0.100
634.000	4.596	0.100
634.100	8.092	0.100
634.200	0.878	0.100
634.300	6.031	0.100
634.400	4.230	0.100
634.500	20.056	0.100
634.600	12.792	0.100
634.700	9.579	0.100
634.800	3.833	0.100
634.900	9.632	0.100
635.000	-3.754	0.100
635.100	-4.745	0.100
635.200	19.779	0.100
635.300	-1.317	0.100
635.400	20.929	0.100
635.500	-3.984	0.100
635.600	7.593	0.100
635.700	2.312	0.100
635.800	6.366	0.100
635.900	-0.086	0.100
636.000	7.708	0.100
636.100	15.798	0.100
636.200	9.824	0.100
636.300	13.678	0.100
636.400	-3.516	0.100
636.500	13.292	0.100
636.600	3.525	0.100
636.700	18.540	0.100
636.800	20.375	0.100
636.900	-3.545	0.100
637.000	3.319	0.100
637.100	0.339	0.100
637.200	-2.475	0.100
637.300	22.510	0.100
637.400	5.757	0.100
637.500	1.644	0.100
637.600	-2.260	0.100
637.700	7.264	0.100
637.800	11.906	0.100
637.900	13.718	0.100
638.000	8.795	0.100
638.100	-4.840	0.100
638.200	7.565	0.100
638.300	6.531	0.100
638.400	8.698	0.100
638.500	9.674	0.100
638.600	-0.573	0.100
638.700	6.066	0.100
638.800	-1.057	0.100
638.900	28.376	0.100
639.000	11.694	0.100
639.100	0.026	0.100
639.200	15.176	0.100
639.300	6.983	0.100
639.400	5.753	0.100
639.500	4.748	0.100
639.600	15.117	0.100
639.700	6.498	0.100
639.800	6.811	0.100
639.900	10.002	0.100
640.000	1.210	0.100
640.100	6.256	0.100
640.200	8.112	0.100
640.300	7.989	0.100
640.400	7.227	0.100
640.500	7.656	0.100
640.600	13.495	0.100
640.700	15.730	0.100
640.800	11.856	0.100
640.900	15.250	0.100
641.000	6.320	0.100
641.100	0.231	0.100
641.200	19.468	0.100
641.300	8.947	0.100
641.400	10.028	0.100
641.500	9.955	0.100
641.600	20.085	0.100
641.700	-0.249	0.100
641.800	34.677	0.100
641.900	6.740	0.100
642.000	7.948	0.100
642.100	7.981	0.100
642.200	14.817	0.100
642.300	0.432	0.100
642.400	13.653	0.100
642.500	18.041	0.100
642.600	8.732	0.100
642.700	10.213	0.100
642.800	19.880	0.100
642.900	16.955	0.100
643.000	22.176	0.100
643.100	1.733	0.100
643.200	28.348	0.100
643.300	21.249	0.100
643.400	14.425	0.101
643.500	12.407	0.100
643.600	11.447	0.100
643.700	20.900	0.100
643.800	21.083	0.100
643.900	15.246	0.100
644.000	9.372	0.100
644.100	16.490	0.100
644.200	21.141	0.100
644.300	20.247	0.100
644.400	25.785	0.100
644.500	14.232	0.100
644.600	19.426	0.100
644.700	16.657	0.100
644.800	15.986	0.100
644.900	6.211	0.100
645.000	12.300	0.100
645.100	23.874	0.100
645.200	13.973	0.100
645.300	13.486	0.100
645.400	13.255	0.100
645.500	15.165	0.100
645.600	13.100	0.100
645.700	24.361	0.100
645.800	23.604	0.100
645.900	21.329	0.100
646.000	20.421	0.100
646.100	9.473	0.100
646.200	16.284	0.100
646.300	12.966	0.100
646.400	22.930	0.100
646.500	21.018	0.100
646.600	20.943	0.100
646.700	10.114	0.100
646.800	24.341	0.100
646.900	3.776	0.100
647.000	23.190	0.100
647.100	21.906	0.100
647.200	11.810	0.100
647.300	17.138	0.100
647.400	0.539	0.100
647.500	18.317	0.100
647.600	25.461	0.100
647.700	21.312	0.100
647.800	28.794	0.100
647.900	29.645	0.100
648.000	23.750	0.100
648.100	13.790	0.100
648.200	13.853	0.100
648.300	1.372	0.100
648.400	39.437	0.100
648.500	10.262	0.100
648.600	31.122	0.100
648.700	19.854	0.100
648.800	19.447	0.100
648.900	31.226	0.100
649.000	21.489	0.101
649.100	23.201	0.100
649.200	19.904	0.100
649.300	17.566	0.100
649.400	9.909	0.100
649.500	5.427	0.100
649.600	29.127	0.100
649.700	33.888	0.100
649.800	43.648	0.100
649.900	22.997	0.100
650.000	23.490	0.100
650.100	30.722	0.100
650.200	7.944	0.100
650.300	29.494	0.100
650.400	17.330	0.100
650.500	33.338	0.100
650.600	16.752	0.100
650.700	25.513	0.100
650.800	27.571	0.101
650.900	22.141	0.100
651.000	19.974	0.100
651.100	13.836	0.100
651.200	21.338	0.100
651.300	25.288	0.100
651.400	11.828	0.100
651.500	23.371	0.100
651.600	32.410	0.100
651.700	32.596	0.100
651.800	18.757	0.100
651.900	23.735	0.100
652.000	15.476	0.100
652.100	28.562	0.100
652.200	22.675	0.100
652.300	21.724	0.100
652.400	20.328	0.100
652.500	11.049	0.100
652.600	36.209	0.100
652.700	27.821	0.100
652.800	27.061	0.100
652.900	15.335	0.100
653.000	14.671	0.100
653.100	17.553	0.100
653.200	24.740	0.100
653.300	23.251	0.100
653.400	39.755	0.100
653.500	17.795	0.100
653.600	4.162	0.100
653.700	30.890	0.100
653.800	30.652	0.100
653.900	34.515	0.100
654.000	29.462	0.100
654.100	36.644	0.100
654.200	20.755	0.100
654.300	30.393	0.100
654.400	19.022	0.100
654.500	25.888	0.100
654.600	24.909	0.100
654.700	24.753	0.100
654.800	19.576	0.100
654.900	31.221	0.100
655.000	23.689	0.100
655.100	17.711	0.100
655.200	40.120	0.100
655.300	28.410	0.100
655.400	24.053	0.100
655.500	27.708	0.100
655.600	31.049	0.100
655.700	19.072	0.100
655.800	18.124	0.100
655.900	23.010	0.100
656.000	28.675	0.100
656.100	24.922	0.100
656.200	20.056	0.100
656.300	30.392	0.100
656.400	27.346	0.100
656.500	22.403	0.100
656.600	30.970	0.100
656.700	15.428	0.100
656.800	25.159	0.100
656.900	24.907	0.100
657.000	39.655	0.100
657.100	20.676	0.100
657.200	39.930	0.100
657.300	27.954	0.100
657.400	34.911	0.100
657.500	27.145	0.100
657.600	32.629	0.100
657.700	21.132	0.100
657.800	19.614	0.100
657.900	33.270	0.100
658.000	19.627	0.100
658.100	19.542	0.100
658.200	19.244	0.100
658.300	32.395	0.100
658.400	29.563	0.100
658.500	50.430	0.100
658.600	16.612	0.100
658.700	11.935	0.100
658.800	26.128	0.100
658.900	37.344	0.100
659.000	22.081	0.100
659.100	20.068	0.100
659.200	34.741	0.100
659.300	19.682	0.100
659.400	17.943	0.100
659.500	30.752	0.100
659.600	35.380	0.100
659.700	29.648	0.100
659.800	26.754	0.100
659.900	24.716	0.100
660.000	27.588	0.100
660.100	25.395	0.100
660.200	34.268	0.100
660.300	20.663	0.100
660.400	30.851	0.100
660.500	38.165	0.100
660.600	18.428	0.100
660.700	37.829	0.100
660.800	21.140	0.100
660.900	26.626	0.100
661.000	35.226	0.100
661.100	22.905	0.100
661.200	33.748	0.100
661.300	20.321	0.100
661.400	42.229	0.100
661.500	46.153	0.100
661.600	26.998	0.100
661.700	27.174	0.100
661.800	28.799	0.100
661.900	25.395	0.100
662.000	21.024	0.100
662.100	49.832	0.100
662.200	24.342	0.100
662.300	31.115	0.100
662.400	15.887	0.100
662.500	30.658	0.100
662.600	16.768	0.100
662.700	25.580	0.100
662.800	33.785	0.100
662.900	24.909	0.100
663.000	22.405	0.100
663.100	26.431	0.100
663.200	28.266	0.100
663.300	28.515	0.100
663.400	33.242	0.100
663.500	23.671	0.100
663.600	36.157	0.100
663.700	24.939	0.100
663.800	23.235	0.100
663.900	30.865	0.100
664.000	38.626	0.100
664.100	48.479	0.100
664.200	7.265	0.100
664.300	36.884	0.100
664.400	24.664	0.100
664.500	18.947	0.100
664.600	9.374	0.100
664.700	14.043	0.100
664.800	33.442	0.100
664.900	34.771	0.100
665.000	27.387	0.100
665.100	33.691	0.100
665.200	30.351	0.100
665.300	18.679	0.100
665.400	30.883	0.100
665.500	33.685	0.100
665.600	36.884	0.100
665.700	49.843	0.100
665.800	16.664	0.100
665.900	22.905	0.100
666.000	36.534	0.100
666.100	37.419	0.100
666.200	32.042	0.100
666.300	23.322	0.100
666.400	40.111	0.100
666.500	25.296	0.100
666.600	15.472	0.100
666.700	33.637	0.100
666.800	30.683	0.100
666.900	26.819	0.100
667.000	29.804	0.100
667.100	39.084	0.100
667.200	28.035	0.100
667.300	28.335	0.100
667.400	34.522	0.100
667.500	29.391	0.100
667.600	19.329	0.100
667.700	30.502	0.100
667.800	38.482	0.100
667.900	30.265	0.100
668.000	31.608	0.100
668.100	22.957	0.100
668.200	47.409	0.100
668.300	26.185	0.100
668.400	30.351	0.100
668.500	29.927	0.100
668.600	35.852	0.100
668.700	42.737	0.101
668.800	33.607	0.100
668.900	34.494	0.100
669.000	43.907	0.100
669.100	18.437	0.100
669.200	37.093	0.100
669.300	19.759	0.100
669.400	30.377	0.100
669.500	31.199	0.100
669.600	27.760	0.100
669.700	31.994	0.101
669.800	26.755	0.100
669.900	30.898	0.100
670.000	16.496	0.100
670.100	33.904	0.100
670.200	37.951	0.100
670.300	38.456	0.100
670.400	22.689	0.100
670.500	26.636	0.100
670.600	24.845	0.100
670.700	30.980	0.100
670.800	34.955	0.100
670.900	32.986	0.100
671.000	24.414	0.100
671.100	30.131	0.100
671.200	41.277	0.100
671.300	25.808	0.100
671.400	26.186	0.101
671.500	41.139	0.100
671.600	37.593	0.100
671.700	38.513	0.100
671.800	13.387	0.100
671.900	36.651	0.100
672.000	28.176	0.100
672.100	28.175	0.100
672.200	29.646	0.100
672.300	20.690	0.100
672.400	37.894	0.100
672.500	28.557	0.101
672.600	26.170	0.100
672.700	30.781	0.100
672.800	25.508	0.100
672.900	40.572	0.100
673.000	23.669	0.100
673.100	19.548	0.101
673.200	35.620	0.100
673.300	39.121	0.101
673.400	51.169	0.100
673.500	13.168	0.100
673.600	26.187	0.100
673.700	41.216	0.100
673.800	19.175	0.100
673.900	43.806	0.101
674.000	41.293	0.100
674.100	39.462	0.100
674.200	26.475	0.100
674.300	27.856	0.100
674.400	31.256	0.100
674.500	34.207	0.100
674.600	31.679	0.100
674.700	49.232	0.100
674.800	29.051	0.100
674.900	22.321	0.100
675.000	39.617	0.100
675.100	21.934	0.100
675.200	25.585	0.100
675.300	34.597	0.100
675.400	30.455	0.100
675.500	54.571	0.100
675.600	19.555	0.100
675.700	33.445	0.100
675.800	30.850	0.100
675.900	25.848	0.100
676.000	30.306	0.100
676.100	41.094	0.100
676.200	30.544	0.100
676.300	36.028	0.100
676.400	25.845	0.100
676.500	30.495	0.100
676.600	22.978	0.100
676.700	28.526	0.100
676.800	43.922	0.100
676.900	27.357	0.100
677.000	37.543	0.100
677.100	20.536	0.100
677.200	30.989	0.100
677.300	28.915	0.100
677.400	32.114	0.100
677.500	21.622	0.100
677.600	26.583	0.100
677.700	28.781	0.100
677.800	32.636	0.100
677.900	28.037	0.100
678.000	27.535	0.101
678.100	25.307	0.100
678.200	42.153	0.100
678.300	25.883	0.100
678.400	19.619	0.100
678.500	36.936	0.100
678.600	25.430	0.100
678.700	29.761	0.100
678.800	22.206	0.100
678.900	39.060	0.100
679.000	26.008	0.100
679.100	26.659	0.101
679.200	19.538	0.100
679.300	22.071	0.100
679.400	42.667	0.100
679.500	37.517	0.100
679.600	24.507	0.100
679.700	24.606	0.100
679.800	14.853	0.100
679.900	29.054	0.100
680.000	37.426	0.100
680.100	20.392	0.100
680.200	37.553	0.101
680.300	17.386	0.101
680.400	25.899	0.100
680.500	28.127	0.100
680.600	24.597	0.101
680.700	40.470	0.100
680.800	30.696	0.100
680.900	31.148	0.100
681.000	31.212	0.100
681.100	25.460	0.100
681.200	16.293	0.100
681.300	40.069	0.100
681.400	23.234	0.100
681.500	22.923	0.100
681.600	29.919	0.100
681.700	34.321	0.100
681.800	35.625	0.100
681.900	36.174	0.100
682.000	31.907	0.101
682.100	33.237	0.100
682.200	32.228	0.100
682.300	34.508	0.100
682.400	34.109	0.100
682.500	40.279	0.100
682.600	18.574	0.100
682.700	23.381	0.100
682.800	26.028	0.101
682.900	34.796	0.100
683.000	21.445	0.100
683.100	29.323	0.100
683.200	32.079	0.100
683.300	26.694	0.100
683.400	28.040	0.100
683.500	30.383	0.101
683.600	34.605	0.100
683.700	32.344	0.100
683.800	35.415	0.100
683.900	29.364	0.100
684.000	24.254	0.100
684.100	29.790	0.100
684.200	22.099	0.100
684.300	31.488	0.100
684.400	24.403	0.100
684.500	25.793	0.100
684.600	42.085	0.100
684.700	31.128	0.100
684.800	22.919	0.100
684.900	32.283	0.100
685.000	42.423	0.100
685.100	26.473	0.100
685.200	26.617	0.100
685.300	16.554	0.100
685.400	22.411	0.100
685.500	38.554	0.100
685.600	20.617	0.100
685.700	33.002	0.100
685.800	35.313	0.100
685.900	24.042	0.100
686.000	38.549	0.100
686.100	46.906	0.100
686.200	31.116	0.100
686.300	26.074	0.100
686.400	22.820	0.100
686.500	28.411	0.100
686.600	29.889	0.101
686.700	40.433	0.100
686.800	28.851	0.100
686.900	30.528	0.101
687.000	42.253	0.100
687.100	22.709	0.100
687.200	24.944	0.100
687.300	45.049	0.100
687.400	30.497	0.100
687.500	44.122	0.100
687.600	30.836	0.100
687.700	27.464	0.101
687.800	32.283	0.101
687.900	30.299	0.100
688.000	28.851	0.100
688.100	29.452	0.100
688.200	38.586	0.100
688.300	32.119	0.100
688.400	27.483	0.100
688.500	27.574	0.101
688.600	34.943	0.100
688.700	37.351	0.100
688.800	20.828	0.100
688.900	32.266	0.100
689.000	29.719	0.100
689.100	32.368	0.100
689.200	27.413	0.101
689.300	21.190	0.100
689.400	27.273	0.101
689.500	48.389	0.100
689.600	22.846	0.101
689.700	33.258	0.100
689.800	33.041	0.101
689.900	35.032	0.101
690.000	28.415	0.101
690.100	26.819	0.101
690.200	32.092	0.100
690.300	36.974	0.100
690.400	23.922	0.101
690.500	21.393	0.100
690.600	21.530	0.100
690.700	30.551	0.101
690.800	32.582	0.100
690.900	27.005	0.101
691.000	13.580	0.101
691.100	17.766	0.100
691.200	25.538	0.101
691.300	12.676	0.100
691.400	11.080	0.101
691.500	21.520	0.100
691.600	7.213	0.101
691.700	5.205	0.100
691.800	4.999	0.100
691.900	0.128	0.100
692.000	6.338	0.101
692.100	23.839	0.101
692.200	2.658	0.100
692.300	-0.447	0.101
692.400	20.658	0.101
692.500	-0.047	0.100
692.600	-0.906	0.100
692.700	-3.931	0.100
692.800	0.258	0.101
692.900	-0.135	0.100
693.000	0.836	0.101
693.100	-3.822	0.101
693.200	-5.211	0.100
693.300	-15.909	0.101
693.400	-3.690	0.101
693.500	1.806	0.101
693.600	-10.272	0.100
693.700	-9.073	0.101
693.800	-21.405	0.100
693.900	-7.853	0.101
694.000	-4.141	0.100
694.100	-17.771	0.100
694.200	-0.960	0.101
694.300	-23.804	0.101
694.400	-18.027	0.100
694.500	-16.448	0.100
694.600	-20.796	0.100
694.700	-1.893	0.101
694.800	-0.774	0.100
694.900	-18.183	0.100
695.000	1.451	0.101
695.100	3.835	0.100
695.200	-19.334	0.100
695.300	-20.533	0.100
695.400	-30.159	0.100
695.500	-5.881	0.100
695.600	-1.640	0.100
695.700	-13.108	0.100
695.800	-24.459	0.100
695.900	-30.203	0.101
696.000	-11.925	0.101
696.100	-17.277	0.100
696.200	-19.340	0.100
696.300	-11.232	0.100
696.400	-2.401	0.101
696.500	-18.365	0.101
696.600	-18.216	0.101
696.700	-20.849	0.101
696.800	-13.405	0.100
696.900	-15.539	0.100
697.000	-4.089	0.100
697.100	-11.761	0.100
697.200	-20.586	0.100
697.300	-12.924	0.100
697.400	-24.393	0.100
697.500	-22.268	0.100
697.600	-13.033	0.100
697.700	-8.728	0.100
697.800	-20.125	0.100
697.900	-11.513	0.100
698.000	-18.257	0.100
698.100	-20.723	0.100
698.200	-0.022	0.100
698.300	-16.238	0.100
698.400	-29.801	0.100
698.500	-15.050	0.101
698.600	-16.920	0.100
698.700	-24.897	0.100
698.800	-8.952	0.100
698.900	-4.212	0.100
699.000	-17.709	0.100
699.100	-11.426	0.100
699.200	-19.591	0.100
699.300	-6.170	0.100
699.400	-12.311	0.100
699.500	-15.529	0.100
699.600	-14.920	0.100
699.700	-21.875	0.100
699.800	-19.912	0.100
699.900	-25.058	0.100
700.000	-6.401	0.100
700.100	-7.806	0.100
700.200	-15.202	0.100
700.300	-5.320	0.101
700.400	-8.966	0.100
700.500	-24.382	0.100
700.600	-14.381	0.100
700.700	-4.760	0.100
700.800	-19.650	0.100
700.900	-28.238	0.100
701.000	-13.876	0.100
701.100	-2.954	0.100
701.200	-20.210	0.100
701.300	3.161	0.100
701.400	-23.429	0.100
701.500	-27.447	0.100
701.600	-17.456	0.100
701.700	-11.898	0.100
701.800	-22.124	0.100
701.900	-14.510	0.100
702.000	-18.297	0.100
702.100	-26.721	0.100
702.200	-2.059	0.100
702.300	-9.389	0.100
702.400	-9.439	0.100
702.500	-10.727	0.100
702.600	-25.309	0.101
702.700	-8.956	0.101
702.800	-8.479	0.100
702.900	-19.090	0.100
703.000	-22.295	0.100
703.100	-25.170	0.100
703.200	-18.506	0.100
703.300	-8.537	0.100
703.400	-13.793	0.100
703.500	-18.008	0.100
703.600	-23.102	0.100
703.700	-25.420	0.100
703.800	-12.975	0.100
703.900	-22.406	0.100
704.000	-7.113	0.100
704.100	-10.208	0.100
704.200	-17.410	0.100
704.300	-21.463	0.100
704.400	-26.806	0.100
704.500	-15.358	0.100
704.600	-25.600	0.100
704.700	-14.806	0.100
704.800	-20.066	0.100
704.900	-13.815	0.100
705.000	-20.188	0.100
705.100	-32.716	0.100
705.200	-13.387	0.100
705.300	-21.491	0.100
705.400	-12.387	0.100
705.500	-11.722	0.100
705.600	-19.528	0.100
705.700	-27.477	0.100
705.800	-7.903	0.100
705.900	-23.304	0.100
706.000	-20.220	0.100
706.100	-28.123	0.100
706.200	-15.293	0.100
706.300	-14.129	0.100
706.400	-18.266	0.100
706.500	-13.489	0.100
706.600	-30.618	0.100
706.700	-6.756	0.100
706.800	-29.707	0.100
706.900	-15.181	0.100
707.000	-20.589	0.100
707.100	-17.695	0.100
707.200	-16.038	0.100
707.300	-2.846	0.100
707.400	-24.232	0.100
707.500	-14.234	0.100
707.600	-20.525	0.100
707.700	-30.655	0.100
707.800	-22.385	0.100
707.900	-9.095	0.100
708.000	-0.471	0.100
708.100	-10.976	0.100
708.200	-25.666	0.100
708.300	-19.119	0.100
708.400	-24.977	0.100
708.500	-24.640	0.100
708.600	-14.621	0.100
708.700	-14.494	0.100
708.800	-19.152	0.100
708.900	-23.751	0.100
709.000	-32.717	0.100
709.100	-27.130	0.100
709.200	-22.842	0.100
709.300	-20.467	0.100
709.400	-10.663	0.100
709.500	-15.495	0.100
709.600	-17.677	0.100
709.700	-22.362	0.100
709.800	-17.318	0.100
709.900	-13.940	0.100
710.000	-20.535	0.100
710.100	-23.836	0.100
710.200	-13.655	0.100
710.300	-22.290	0.100
710.400	-13.995	0.100
710.500	-19.144	0.101
710.600	-20.649	0.100
710.700	-10.881	0.100
710.800	-8.934	0.100
710.900	-19.766	0.100
711.000	-25.048	0.100
711.100	-38.116	0.100
711.200	-14.170	0.101
711.300	-24.098	0.100
711.400	-20.826	0.100
711.500	-19.029	0.100
711.600	-19.697	0.100
711.700	-21.212	0.100
711.800	-17.317	0.100
711.900	-20.682	0.100
712.000	-16.922	0.100
712.100	-18.961	0.100
712.200	-19.772	0.100
712.300	-31.107	0.100
712.400	-14.193	0.100
712.500	-16.937	0.100
712.600	-26.236	0.100
712.700	-14.741	0.100
712.800	-24.895	0.100
712.900	-17.104	0.100
713.000	-18.652	0.100
713.100	-12.289	0.100
713.200	-17.024	0.100
713.300	-23.493	0.100
713.400	-31.390	0.100
713.500	-22.458	0.100
713.600	-16.972	0.100
713.700	-11.602	0.100
713.800	-27.559	0.100
713.900	-16.576	0.100
714.000	-27.545	0.100
714.100	-26.795	0.100
714.200	-12.882	0.100
714.300	-18.661	0.100
714.400	-16.578	0.100
714.500	-16.591	0.100
714.600	-26.982	0.100
714.700	-9.906	0.100
714.800	-38.511	0.100
714.900	-10.909	0.100
715.000	-15.909	0.100
715.100	-15.872	0.100
715.200	-19.211	0.100
715.300	-14.647	0.100
715.400	-20.490	0.100
715.500	-8.375	0.100
715.600	-25.298	0.100
715.700	-22.140	0.100
715.800	-25.941	0.100
715.900	-16.706	0.100
716.000	-24.915	0.100
716.100	-26.144	0.100
716.200	-28.175	0.100
716.300	-13.892	0.100
716.400	-28.566	0.100
716.500	-16.833	0.100
716.600	-9.950	0.100
716.700	-18.350	0.100
716.800	-15.475	0.100
716.900	-22.253	0.100
717.000	-23.013	0.100
717.100	-18.216	0.100
717.200	-17.438	0.100
717.300	-14.790	0.100
717.400	-25.162	0.100
717.500	-9.702	0.100
717.600	-15.450	0.100
717.700	-12.217	0.100
717.800	-23.055	0.100
717.900	-16.070	0.100
718.000	-8.422	0.100
718.100	-26.018	0.100
718.200	-23.681	0.100
718.300	-14.352	0.100
718.400	-18.159	0.100
718.500	-15.554	0.100
718.600	-22.518	0.100
718.700	-10.404	0.100
718.800	-15.847	0.100
718.900	-34.091	0.100
719.000	-21.197	0.100
719.100	-18.636	0.100
719.200	-17.433	0.100
719.300	-13.986	0.100
719.400	-24.362	0.100
719.500	-16.811	0.100
719.600	-10.817	0.101
719.700	-22.774	0.100
719.800	-17.818	0.100
719.900	-22.714	0.100
720.000	-20.518	0.100
720.100	-13.858	0.100
720.200	-14.854	0.100
720.300	-32.978	0.100
720.400	-20.525	0.100
720.500	-20.275	0.100
720.600	-19.320	0.100
720.700	-24.830	0.100
720.800	-23.068	0.100
720.900	-13.028	0.100
721.000	-13.381	0.100
721.100	-21.617	0.100
721.200	-6.941	0.100
721.300	-32.247	0.100
721.400	-21.460	0.100
721.500	-23.572	0.100
721.600	-16.519	0.100
721.700	-19.365	0.100
721.800	-0.239	0.100
721.900	-19.837	0.100
722.000	-28.007	0.100
722.100	-22.200	0.100
722.200	-40.323	0.100
722.300	-18.058	0.100
722.400	-15.769	0.100
722.500	-15.067	0.100
722.600	1.534	0.100
722.700	-30.098	0.100
722.800	-13.393	0.100
722.900	-15.715	0.100
723.000	-21.168	0.100
723.100	-18.536	0.100
723.200	-22.751	0.100
723.300	-27.029	0.100
723.400	2.884	0.100
723.500	-16.047	0.101
723.600	-8.198	0.101
723.700	-18.053	0.100
723.800	-17.564	0.100
723.900	-17.552	0.100
724.000	-8.043	0.100
724.100	-28.874	0.100
724.200	-21.421	0.100
724.300	-24.677	0.100
724.400	-14.859	0.100
724.500	-10.784	0.100
724.600	-13.238	0.100
724.700	-14.045	0.100
724.800	-15.675	0.100
724.900	-15.601	0.100
725.000	-8.238	0.100
725.100	-19.727	0.100
725.200	-8.877	0.100
725.300	-20.203	0.100
725.400	-20.554	0.100
725.500	-10.316	0.100
725.600	-21.951	0.100
725.700	-23.083	0.100
725.800	-32.911	0.100
725.900	-17.118	0.100
726.000	-13.168	0.100
726.100	-7.260	0.100
726.200	-23.542	0.100
726.300	-11.777	0.100
726.400	-13.772	0.100
726.500	-12.602	0.100
726.600	-14.402	0.100
726.700	-27.062	0.100
726.800	-14.794	0.100
726.900	-18.943	0.100
727.000	-30.983	0.100
727.100	-26.952	0.100
727.200	-15.990	0.100
727.300	-27.861	0.100
727.400	-15.474	0.100
727.500	-12.812	0.100
727.600	-6.178	0.100
727.700	-16.237	0.100
727.800	-17.282	0.100
727.900	-19.633	0.100
728.000	-12.567	0.100
728.100	-19.350	0.100
728.200	-25.707	0.100
728.300	-16.768	0.100
728.400	-23.865	0.100
728.500	-13.831	0.100
728.600	-19.878	0.100
728.700	-10.215	0.100
728.800	-13.704	0.100
728.900	-15.588	0.100
729.000	-10.601	0.100
729.100	-10.692	0.100
729.200	-4.066	0.100
729.300	-24.650	0.100
729.400	-23.192	0.100
729.500	-28.060	0.100
729.600	-27.210	0.100
729.700	-6.900	0.100
729.800	-4.342	0.100
729.900	-20.682	0.100
730.000	-13.741	0.100
730.100	-17.303	0.100
730.200	-20.437	0.100
730.300	-22.616	0.100
730.400	-10.369	0.100
730.500	-13.569	0.100
730.600	-9.618	0.100
730.700	-22.684	0.100
730.800	-15.641	0.100
730.900	-17.371	0.100
731.000	-11.428	0.100
731.100	-14.893	0.100
731.200	-10.360	0.100
731.300	-22.696	0.100
731.400	-19.014	0.100
731.500	-15.089	0.100
731.600	-7.044	0.100
731.700	-15.286	0.100
731.800	-11.104	0.100
731.900	-17.685	0.100
732.000	-23.298	0.100
732.100	-21.473	0.100
732.200	-16.643	0.100
732.300	-8.505	0.100
732.400	-17.555	0.100
732.500	-14.803	0.100
732.600	-26.986	0.100
732.700	-11.137	0.100
732.800	-9.522	0.100
732.900	-18.725	0.100
733.000	-14.133	0.100
733.100	-14.551	0.100
733.200	-16.121	0.100
733.300	-18.789	0.100
733.400	-16.119	0.100
733.500	-13.333	0.100
733.600	-15.788	0.100
733.700	-1.435	0.100
733.800	-25.109	0.100
733.900	-22.825	0.100
734.000	-5.994	0.100
734.100	-15.567	0.100
734.200	-13.822	0.100
734.300	-6.258	0.100
734.400	-15.795	0.100
734.500	-10.988	0.100
734.600	-23.900	0.100
734.700	-22.232	0.100
734.800	-20.920	0.100
734.900	-21.920	0.100
735.000	-25.206	0.101
735.100	-8.432	0.100
735.200	-12.669	0.101
735.300	-22.763	0.100
735.400	-6.651	0.100
735.500	-24.684	0.100
735.600	-1.203	0.100
735.700	-23.775	0.100
735.800	-9.260	0.100
735.900	-22.327	0.100
736.000	-9.282	0.100
736.100	-16.090	0.100
736.200	-16.430	0.100
736.300	-21.705	0.100
736.400	-27.493	0.100
736.500	-12.273	0.100
736.600	-7.585	0.100
736.700	-19.282	0.100
736.800	0.253	0.100
736.900	-25.039	0.100
737.000	-7.864	0.100
737.100	-32.110	0.100
737.200	-17.792	0.100
737.300	-12.127	0.100
737.400	-11.558	0.100
737.500	-15.628	0.100
737.600	-11.467	0.100
737.700	-25.192	0.100
737.800	-10.133	0.100
737.900	-16.692	0.100
738.000	-22.058	0.100
738.100	-8.678	0.100
738.200	-21.952	0.100
738.300	-6.733	0.100
738.400	-23.088	0.100
738.500	-13.262	0.101
738.600	-18.188	0.100
738.700	-12.965	0.100
738.800	-12.173	0.100
738.900	-7.847	0.100
739.000	-2.424	0.100
739.100	-23.904	0.100
739.200	-12.407	0.100
739.300	-20.091	0.100
739.400	-33.850	0.100
739.500	-15.981	0.100
739.600	-18.619	0.100
739.700	-11.965	0.100
739.800	-15.986	0.100
739.900	-8.737	0.100
740.000	-16.672	0.100
740.100	-6.943	0.100
740.200	-22.125	0.100
740.300	-23.670	0.100
740.400	-4.205	0.100
740.500	-13.853	0.100
740.600	-9.774	0.100
740.700	-5.546	0.100
740.800	-22.240	0.100
740.900	-14.227	0.100
741.000	-22.721	0.100
741.100	-16.172	0.100
741.200	-7.393	0.100
741.300	-27.771	0.100
741.400	-20.243	0.100
741.500	-20.169	0.100
741.600	-13.922	0.100
741.700	-7.257	0.100
741.800	-18.135	0.100
741.900	-4.406	0.100
742.000	-7.163	0.100
742.100	-11.247	0.100
742.200	-10.921	0.100
742.300	-18.504	0.100
742.400	-14.728	0.100
742.500	-14.774	0.100
742.600	-8.775	0.100
742.700	-18.939	0.100
742.800	-7.637	0.100
742.900	-5.579	0.100
743.000	-11.964	0.100
743.100	-17.617	0.100
743.200	-25.320	0.100
743.300	-6.384	0.101
743.400	-20.797	0.100
743.500	-11.128	0.100
743.600	-2.951	0.100
743.700	-16.845	0.100
743.800	-18.945	0.100
743.900	-16.809	0.100
744.000	-5.567	0.100
744.100	-13.492	0.100
744.200	-20.560	0.100
744.300	-32.008	0.100
744.400	-5.351	0.100
744.500	-8.142	0.100
744.600	-18.563	0.100
744.700	-15.499	0.100
744.800	-6.493	0.100
744.900	-19.840	0.100
745.000	-15.422	0.100
745.100	-5.299	0.100
745.200	-17.952	0.100
745.300	-8.532	0.100
745.400	-15.607	0.100
745.500	-15.163	0.100
745.600	-27.667	0.100
745.700	-21.964	0.100
745.800	-23.221	0.100
745.900	-5.105	0.100
746.000	-24.797	0.100
746.100	-15.378	0.100
746.200	0.513	0.100
746.300	-27.024	0.100
746.400	-8.719	0.100
746.500	-10.589	0.100
746.600	-12.724	0.100
746.700	-19.638	0.100
746.800	-19.262	0.100
746.900	-9.052	0.100
747.000	-19.976	0.100
747.100	-19.167	0.100
747.200	-20.240	0.100
747.300	-18.268	0.100
747.400	-0.941	0.100
747.500	-17.502	0.100
747.600	-29.680	0.100
747.700	-9.937	0.100
747.800	-11.752	0.100
747.900	-8.522	0.100
748.000	-19.291	0.100
748.100	-16.441	0.100
748.200	-19.543	0.100
748.300	-7.017	0.100
748.400	-16.133	0.100
748.500	-10.050	0.100
748.600	-28.372	0.100
748.700	-10.440	0.100
748.800	-12.726	0.100
748.900	-9.848	0.100
749.000	-21.069	0.100
749.100	-0.605	0.100
749.200	-15.973	0.100
749.300	-18.791	0.100
749.400	-11.902	0.100
749.500	-16.205	0.100
749.600	-6.069	0.100
749.700	-13.698	0.100
749.800	-22.862	0.100
749.900	-12.012	0.100
750.000	-15.039	0.100
750.100	-19.358	0.100
750.200	-15.779	0.100
750.300	-15.284	0.100
750.400	-14.665	0.100
750.500	-20.982	0.100
750.600	-11.154	0.100
750.700	-23.080	0.100
750.800	-3.036	0.100
750.900	-17.826	0.100
751.000	-9.448	0.100
751.100	-10.162	0.100
751.200	-13.543	0.101
751.300	-24.608	0.100
751.400	-1.600	0.100
751.500	-3.916	0.100
751.600	-11.444	0.100
751.700	-27.348	0.100
751.800	-26.762	0.100
751.900	-16.419	0.100
752.000	-11.127	0.100
752.100	-2.796	0.101
752.200	-18.327	0.100
752.300	-14.187	0.100
752.400	-10.820	0.100
752.500	-10.981	0.100
752.600	-7.236	0.100
752.700	-20.991	0.100
752.800	-20.006	0.101
752.900	0.733	0.100
753.000	-0.521	0.100
753.100	-17.471	0.100
753.200	-12.094	0.100
753.300	-17.789	0.100
753.400	-6.734	0.100
753.500	-11.795	0.100
753.600	-13.438	0.100
753.700	-8.556	0.100
753.800	-16.798	0.100
753.900	-9.898	0.100
754.000	-9.126	0.101
754.100	-12.412	0.100
754.200	-18.597	0.100
754.300	-9.064	0.100
754.400	-11.506	0.100
754.500	-6.999	0.100
754.600	-11.012	0.100
754.700	-16.587	0.100
754.800	-13.805	0.100
754.900	-29.008	0.100
755.000	-11.749	0.100
755.100	-12.388	0.101
755.200	-12.156	0.100
755.300	-9.888	0.100
755.400	-9.134	0.100
755.500	-17.251	0.100
755.600	-12.013	0.100
755.700	-29.787	0.100
755.800	-15.533	0.100
755.900	-3.467	0.100
756.000	-23.250	0.100
756.100	-6.959	0.100
756.200	-17.030	0.100
756.300	-8.141	0.100
756.400	-13.826	0.100
756.500	-4.549	0.100
756.600	-7.370	0.100
756.700	-7.683	0.100
756.800	-16.846	0.100
756.900	-18.017	0.100
757.000	1.699	0.101
757.100	-18.278	0.100
757.200	-12.182	0.100
757.300	-26.353	0.100
757.400	-6.577	0.100
757.500	-15.692	0.100
757.600	-16.238	0.100
757.700	-19.180	0.100
757.800	-17.175	0.100
757.900	-0.418	0.100
758.000	-1.402	0.100
758.100	-25.022	0.100
758.200	-14.460	0.100
758.300	-23.787	0.100
758.400	-0.360	0.100
758.500	-1.966	0.100
758.600	-16.544	0.100
758.700	-18.074	0.100
758.800	-15.049	0.100
758.900	-6.133	0.100
759.000	-1.245	0.100
759.100	-23.955	0.100
759.200	-8.471	0.100
759.300	-8.327	0.101
759.400	-13.264	0.100
759.500	-16.821	0.100
759.600	-15.552	0.100
759.700	-3.924	0.100
759.800	-12.389	0.100
759.900	-26.413	0.100
760.000	-7.041	0.100
760.100	-19.909	0.100
760.200	-11.676	0.100
760.300	-24.611	0.100
760.400	-13.453	0.100
760.500	-8.818	0.100
760.600	-4.798	0.100
760.700	-8.182	0.100
760.800	-9.276	0.100
760.900	-14.061	0.100
761.000	-13.284	0.100
761.100	-8.469	0.100
761.200	-21.595	0.100
761.300	-13.817	0.100
761.400	-9.351	0.100
761.500	-2.865	0.100
761.600	-8.464	0.100
761.700	-20.096	0.100
761.800	-3.113	0.101
761.900	-11.041	0.100
762.000	-5.922	0.100
762.100	-16.160	0.101
762.200	-23.312	0.100
762.300	-19.535	0.100
762.400	-12.862	0.100
762.500	-8.409	0.100
762.600	-19.282	0.100
762.700	-9.357	0.100
762.800	-22.024	0.101
762.900	-9.620	0.100
763.000	-11.197	0.100
763.100	-21.536	0.100
763.200	-4.219	0.100
763.300	-10.283	0.100
763.400	-15.123	0.100
763.500	1.617	0.100
763.600	-12.184	0.100
763.700	-20.818	0.100
763.800	-20.382	0.100
763.900	-10.483	0.100
764.000	-9.511	0.100
764.100	-5.239	0.101
764.200	-3.798	0.100
764.300	-14.421	0.100
764.400	-13.170	0.100
764.500	-18.203	0.100
764.600	0.329	0.100
764.700	-25.732	0.100
764.800	-19.635	0.100
764.900	-17.991	0.100
765.000	-8.855	0.100
765.100	-9.902	0.100
765.200	-11.658	0.100
765.300	-2.842	0.100
765.400	-11.819	0.100
765.500	-22.539	0.100
765.600	-3.412	0.100
765.700	-23.922	0.100
765.800	-11.109	0.100
765.900	-23.445	0.100
766.000	-4.167	0.100
766.100	-17.141	0.100
766.200	-9.768	0.100
766.300	-27.041	0.100
766.400	-0.471	0.100
766.500	-15.506	0.100
766.600	-1.670	0.100
766.700	-12.614	0.100
766.800	-9.821	0.100
766.900	-24.658	0.100
767.000	-7.551	0.100
767.100	-1.818	0.100
767.200	-16.600	0.100
767.300	-18.225	0.100
767.400	-7.704	0.100
767.500	-13.253	0.100
767.600	-14.919	0.100
767.700	-14.839	0.100
767.800	-6.477	0.100
767.900	-14.824	0.100
768.000	-17.670	0.100
768.100	-5.713	0.100
768.200	-15.128	0.100
768.300	-5.442	0.100
768.400	-22.429	0.100
768.500	-10.407	0.100
768.600	-25.502	0.100
768.700	-5.663	0.100
768.800	-4.566	0.100
768.900	-11.223	0.100
769.000	-5.505	0.100
769.100	-16.578	0.100
769.200	-12.763	0.100
769.300	-8.054	0.100
769.400	-11.655	0.100
769.500	-15.637	0.101
769.600	-16.402	0.100
769.700	-12.545	0.100
769.800	-12.828	0.100
769.900	-7.244	0.100
770.000	-13.033	0.100
770.100	-21.725	0.100
770.200	-21.012	0.100
770.300	-1.413	0.100
770.400	-15.535	0.100
770.500	-2.777	0.100
770.600	-17.937	0.100
770.700	-6.256	0.100
770.800	-6.367	0.100
770.900	-5.348	0.100
771.000	-9.119	0.100
771.100	-28.959	0.100
771.200	-7.291	0.100
771.300	-18.061	0.100
771.400	-26.464	0.100
771.500	-4.539	0.100
771.600	-9.476	0.100
771.700	-6.109	0.100
771.800	-7.766	0.100
771.900	-9.986	0.100
772.000	-12.700	0.100
772.100	-17.272	0.100
772.200	0.610	0.100
772.300	-27.553	0.100
772.400	-21.078	0.100
772.500	2.014	0.100
772.600	2.319	0.100
772.700	-5.875	0.100
772.800	-28.966	0.100
772.900	-4.363	0.100
773.000	-9.639	0.100
773.100	-5.478	0.100
773.200	3.955	0.100
773.300	-14.699	0.100
773.400	-24.162	0.100
773.500	-17.460	0.100
773.600	-27.384	0.100
773.700	-15.952	0.100
773.800	-8.150	0.100
773.900	-11.991	0.100
774.000	-12.277	0.100
774.100	-11.332	0.100
774.200	-14.218	0.100
774.300	-17.055	0.100
774.400	-3.959	0.100
774.500	-4.937	0.100
774.600	-22.327	0.100
774.700	4.531	0.100
774.800	-16.838	0.100
774.900	-22.681	0.100
775.000	-8.001	0.100
775.100	-11.217	0.100
775.200	-10.429	0.100
775.300	-15.891	0.100
775.400	-4.486	0.100
775.500	-18.603	0.100
775.600	-1.409	0.101
775.700	-12.700	0.100
775.800	-8.925	0.100
775.900	-19.910	0.101
776.000	-17.241	0.100
776.100	-19.371	0.100
776.200	-10.942	0.100
776.300	-17.765	0.100
776.400	-21.501	0.100
776.500	-12.638	0.100
776.600	-13.264	0.100
776.700	4.111	0.100
776.800	-15.807	0.100
776.900	-16.521	0.100
777.000	-13.086	0.100
777.100	-15.513	0.100
777.200	-12.223	0.100
777.300	-17.287	0.100
777.400	-5.686	0.100
777.500	-20.854	0.100
777.600	-4.537	0.100
777.700	-23.207	0.100
777.800	-2.314	0.100
777.900	-7.933	0.100
778.000	-12.168	0.100
778.100	-9.692	0.100
778.200	-9.641	0.100
778.300	-22.451	0.100
778.400	-3.967	0.100
778.500	-30.989	0.100
778.600	-25.765	0.100
778.700	-9.724	0.100
778.800	-5.810	0.100
778.900	-7.163	0.100
779.000	-14.320	0.100
779.100	-15.650	0.100
779.200	-18.367	0.100
779.300	-7.703	0.100
779.400	-22.165	0.100
779.500	4.272	0.100
779.600	-10.653	0.100
779.700	-23.702	0.100
779.800	-21.098	0.100
779.900	-24.311	0.100
780.000	-5.297	0.100
780.100	-12.764	0.100
780.200	1.466	0.100
780.300	-11.650	0.100
780.400	-19.451	0.100
780.500	-8.819	0.100
780.600	-10.968	0.100
780.700	-13.328	0.100
780.800	-14.207	0.100
780.900	-3.352	0.100
781.000	-9.060	0.100
781.100	1.452	0.100
781.200	-3.586	0.100
781.300	-12.243	0.100
781.400	-3.862	0.100
781.500	-4.540	0.100
781.600	-0.517	0.100
781.700	3.783	0.100
781.800	3.569	0.101
781.900	8.880	0.100
782.000	-4.133	0.100
782.100	-7.478	0.100
782.200	10.235	0.100
782.300	-3.173	0.100
782.400	9.032	0.100
782.500	-6.017	0.100
782.600	18.495	0.100
782.700	5.479	0.100
782.800	-7.819	0.100
782.900	6.039	0.100
783.000	3.443	0.100
783.100	16.728	0.100
783.200	3.580	0.100
783.300	6.149	0.100
783.400	9.717	0.100
783.500	7.920	0.100
783.600	9.027	0.100
783.700	9.312	0.100
783.800	0.411	0.100
783.900	-2.642	0.100
784.000	5.831	0.100
784.100	9.127	0.101
784.200	4.375	0.100
784.300	15.997	0.100
784.400	6.953	0.100
784.500	16.253	0.100
784.600	7.219	0.100
784.700	7.500	0.100
784.800	7.296	0.100
784.900	5.334	0.100
785.000	1.926	0.100
785.100	2.386	0.100
785.200	-3.281	0.100
785.300	4.608	0.100
785.400	10.746	0.100
785.500	6.259	0.100
785.600	14.515	0.100
785.700	3.474	0.100
785.800	-1.813	0.100
785.900	13.121	0.100
786.000	7.290	0.100
786.100	5.003	0.100
786.200	-2.987	0.100
786.300	1.989	0.100
786.400	7.695	0.100
786.500	20.017	0.100
786.600	-5.879	0.100
786.700	-1.769	0.100
786.800	1.144	0.100
786.900	5.328	0.100
787.000	21.855	0.100
787.100	7.427	0.100
787.200	1.775	0.100
787.300	19.656	0.100
787.400	-13.050	0.100
787.500	16.984	0.100
787.600	0.269	0.100
787.700	11.088	0.100
787.800	16.094	0.100
787.900	-1.235	0.100
788.000	8.564	0.100
788.100	2.685	0.100
788.200	-8.628	0.100
788.300	24.581	0.100
788.400	14.879	0.100
788.500	14.355	0.100
788.600	-2.456	0.100
788.700	-0.097	0.100
788.800	4.751	0.100
788.900	8.631	0.100
789.000	14.110	0.100
789.100	26.464	0.100
789.200	8.050	0.100
789.300	8.779	0.100
789.400	-5.619	0.100
789.500	12.141	0.100
789.600	6.475	0.100
789.700	12.793	0.100
789.800	16.695	0.100
789.900	13.152	0.100
790.000	5.123	0.100
790.100	1.177	0.100
790.200	10.957	0.100
790.300	30.302	0.100
790.400	0.698	0.100
790.500	17.015	0.101
790.600	7.284	0.100
790.700	5.094	0.100
790.800	12.118	0.100
790.900	18.693	0.100
791.000	-1.275	0.100
791.100	17.136	0.100
791.200	9.287	0.100
791.300	11.143	0.100
791.400	10.048	0.100
791.500	14.966	0.100
791.600	6.743	0.100
791.700	20.533	0.101
791.800	2.963	0.101
791.900	6.766	0.100
792.000	18.132	0.100
792.100	15.732	0.100
792.200	1.387	0.100
792.300	19.285	0.100
792.400	11.856	0.100
792.500	3.094	0.100
792.600	16.571	0.100
792.700	10.147	0.100
792.800	19.443	0.100
792.900	14.308	0.100
793.000	15.990	0.100
793.100	1.032	0.100
793.200	28.836	0.100
793.300	11.384	0.100
793.400	16.214	0.100
793.500	2.258	0.100
793.600	16.096	0.100
793.700	17.372	0.100
793.800	10.862	0.100
793.900	13.542	0.100
794.000	17.288	0.100
794.100	11.891	0.100
794.200	9.038	0.100
794.300	8.208	0.101
794.400	15.054	0.100
794.500	17.132	0.100
794.600	12.689	0.100
794.700	23.922	0.100
794.800	13.371	0.100
794.900	12.723	0.100
795.000	6.880	0.100
795.100	9.832	0.100
795.200	14.540	0.100
795.300	6.793	0.100
795.400	30.797	0.100
795.500	13.499	0.101
795.600	4.549	0.101
795.700	21.791	0.100
795.800	9.230	0.100
795.900	21.899	0.101
796.000	6.281	0.100
796.100	28.070	0.100
796.200	27.271	0.101
796.300	1.884	0.100
796.400	19.903	0.100
796.500	10.532	0.100
796.600	22.326	0.100
796.700	21.533	0.100
796.800	17.796	0.101
796.900	11.412	0.100
797.000	12.610	0.100
797.100	10.111	0.100
797.200	19.015	0.100
797.300	15.383	0.100
797.400	21.205	0.100
797.500	28.576	0.100
797.600	12.975	0.100
797.700	25.841	0.100
797.800	9.138	0.100
797.900	23.619	0.100
798.000	12.734	0.100
798.100	12.494	0.100
798.200	28.633	0.100
798.300	20.333	0.101
798.400	10.896	0.100
798.500	25.094	0.100
798.600	19.772	0.101
798.700	22.468	0.100
798.800	23.893	0.100
798.900	30.160	0.100
799.000	21.511	0.100
799.100	11.377	0.100
799.200	11.453	0.100
799.300	19.812	0.100
799.400	27.294	0.100
799.500	34.406	0.101
799.600	17.474	0.100
799.700	10.395	0.101
799.800	17.944	0.100
799.900	15.282	0.100
800.000	24.738	0.100
