time /s	I /nA	E /V
0.100	-13.625	0.100
0.200	-28.068	0.100
0.300	-16.587	0.100
0.400	-2.045	0.100
0.500	-18.989	0.100
0.600	-5.676	0.100
0.700	-21.559	0.100
0.800	5.215	0.100
0.900	6.123	0.100
1.000	-22.632	0.100
1.100	-26.750	0.100
1.200	8.211	0.100
1.300	-10.143	0.100
1.400	-19.761	0.100
1.500	-12.496	0.100
1.600	-5.744	0.100
1.700	-20.650	0.100
1.800	-38.814	0.100
1.900	-1.734	0.100
2.000	8.742	0.100
2.100	-20.213	0.100
2.200	-6.732	0.100
2.300	-16.177	0.100
2.400	-16.748	0.100
2.500	3.428	0.100
2.600	4.040	0.100
2.700	-17.848	0.100
2.800	-5.156	0.100
2.900	-12.034	0.100
3.000	-13.114	0.100
3.100	-10.831	0.100
3.200	-8.962	0.100
3.300	-15.929	0.100
3.400	-31.764	0.100
3.500	-20.218	0.100
3.600	10.967	0.100
3.700	-5.675	0.100
3.800	-3.201	0.100
3.900	-21.112	0.100
4.000	5.324	0.100
4.100	-7.249	0.100
4.200	-7.477	0.100
4.300	-12.673	0.100
4.400	-21.617	0.100
4.500	-8.140	0.100
4.600	-17.048	0.100
4.700	-12.642	0.100
4.800	-17.470	0.100
4.900	-15.723	0.100
5.000	-30.845	0.100
5.100	4.662	0.100
5.200	-13.788	0.100
5.300	-13.951	0.100
5.400	3.630	0.100
5.500	-12.485	0.100
5.600	-4.482	0.100
5.700	-21.316	0.100
5.800	-10.319	0.100
5.900	-3.540	0.100
6.000	-10.811	0.100
6.100	-2.669	0.100
6.200	-14.573	0.100
6.300	2.322	0.100
6.400	-5.941	0.100
6.500	-18.256	0.100
6.600	-1.433	0.100
6.700	-19.304	0.100
6.800	-13.197	0.100
6.900	-13.487	0.100
7.000	-16.995	0.100
7.100	-12.099	0.100
7.200	-27.095	0.100
7.300	-3.624	0.100
7.400	-5.654	0.100
7.500	-3.815	0.100
7.600	-5.095	0.100
7.700	-4.483	0.100
7.800	-8.735	0.100
7.900	-3.062	0.100
8.000	-24.919	0.100
8.100	-0.255	0.100
8.200	-8.215	0.100
8.300	0.144	0.100
8.400	-6.505	0.100
8.500	-3.334	0.100
8.600	-20.827	0.100
8.700	-5.365	0.100
8.800	-6.170	0.100
8.900	-18.225	0.100
9.000	-14.865	0.100
9.100	-13.902	0.100
9.200	-28.146	0.100
9.300	-13.032	0.100
9.400	-9.684	0.100
9.500	4.091	0.100
9.600	-26.909	0.100
9.700	-15.043	0.100
9.800	-18.903	0.100
9.900	-0.883	0.100
10.000	1.595	0.100
10.100	3.761	0.100
10.200	-18.499	0.100
10.300	-0.295	0.100
10.400	-8.563	0.100
10.500	2.624	0.100
10.600	-22.661	0.100
10.700	11.879	0.100
10.800	-27.057	0.100
10.900	-20.581	0.100
11.000	2.799	0.100
11.100	-4.884	0.100
11.200	-16.105	0.100
11.300	-11.456	0.100
11.400	-5.963	0.100
11.500	-7.470	0.100
11.600	-7.219	0.100
11.700	-6.586	0.100
11.800	-3.548	0.100
11.900	-6.049	0.100
12.000	-24.852	0.100
12.100	-15.343	0.100
12.200	-3.440	0.100
12.300	-31.964	0.100
12.400	-2.742	0.100
12.500	1.461	0.100
12.600	-28.228	0.100
12.700	14.729	0.100
12.800	3.036	0.100
12.900	-16.223	0.100
13.000	-16.950	0.100
13.100	0.286	0.100
13.200	-4.987	0.100
13.300	-5.021	0.100
13.400	-8.848	0.100
13.500	-3.422	0.100
13.600	-20.880	0.100
13.700	-21.288	0.100
13.800	-2.216	0.100
13.900	-4.662	0.100
14.000	-23.292	0.100
14.100	-4.054	0.100
14.200	0.998	0.100
14.300	-10.124	0.100
14.400	-12.625	0.100
14.500	6.022	0.100
14.600	-15.332	0.100
14.700	-14.330	0.100
14.800	-19.437	0.100
14.900	-8.758	0.100
15.000	-14.372	0.100
15.100	0.675	0.100
15.200	-19.479	0.100
15.300	-20.298	0.100
15.400	-24.144	0.100
15.500	-16.043	0.100
15.600	-7.587	0.100
15.700	0.131	0.100
15.800	-38.747	0.100
15.900	-18.736	0.100
16.000	-3.917	0.100
16.100	-11.072	0.100
16.200	-25.841	0.100
16.300	-2.089	0.100
16.400	-18.791	0.100
16.500	-29.348	0.100
16.600	4.521	0.100
16.700	-15.259	0.100
16.800	-13.510	0.100
16.900	-11.335	0.100
17.000	-11.817	0.100
17.100	-8.894	0.100
17.200	-10.150	0.100
17.300	4.352	0.100
17.400	-9.503	0.100
17.500	-27.404	0.100
17.600	-4.465	0.100
17.700	-21.325	0.100
17.800	-13.065	0.100
17.900	-6.863	0.100
18.000	-9.827	0.100
18.100	-6.110	0.100
18.200	-3.814	0.100
18.300	-11.027	0.100
18.400	-10.096	0.100
18.500	-19.862	0.100
18.600	13.068	0.100
18.700	-11.904	0.100
18.800	-17.451	0.100
18.900	-22.032	0.100
19.000	-9.971	0.100
19.100	4.572	0.100
19.200	-22.029	0.100
19.300	-4.073	0.100
19.400	-12.721	0.100
19.500	1.221	0.100
19.600	-3.615	0.100
19.700	-8.909	0.100
19.800	-13.480	0.100
19.900	-29.338	0.100
20.000	-11.452	0.100
20.100	-6.936	0.100
20.200	-19.266	0.100
20.300	3.578	0.100
20.400	-2.034	0.100
20.500	-19.401	0.100
20.600	-22.977	0.100
20.700	-11.807	0.100
20.800	-7.369	0.100
20.900	-8.394	0.100
21.000	12.173	0.100
21.100	-5.239	0.100
21.200	-13.956	0.100
21.300	-20.781	0.100
21.400	1.724	0.100
21.500	-7.955	0.100
21.600	-3.981	0.100
21.700	-36.593	0.100
21.800	-11.640	0.100
21.900	-12.803	0.100
22.000	-8.099	0.100
22.100	-19.297	0.100
22.200	0.713	0.100
22.300	-2.910	0.100
22.400	-25.936	0.100
22.500	-9.630	0.100
22.600	7.156	0.100
22.700	-8.519	0.100
22.800	-14.484	0.100
22.900	-3.104	0.100
23.000	-19.615	0.100
23.100	-14.475	0.100
23.200	11.958	0.100
23.300	-6.063	0.100
23.400	-21.838	0.100
23.500	-13.207	0.100
23.600	-7.196	0.100
23.700	-10.582	0.100
23.800	-6.785	0.100
23.900	-8.439	0.100
24.000	-20.324	0.100
24.100	2.896	0.100
24.200	-3.563	0.100
24.300	-5.192	0.100
24.400	-0.740	0.100
24.500	2.883	0.100
24.600	-26.473	0.100
24.700	-9.658	0.100
24.800	-12.663	0.100
24.900	7.648	0.100
25.000	-10.254	0.100
25.100	-12.328	0.100
25.200	-2.176	0.100
25.300	-15.264	0.100
25.400	-16.639	0.100
25.500	-0.884	0.100
25.600	-17.573	0.100
25.700	-4.121	0.100
25.800	-29.026	0.100
25.900	-10.239	0.100
26.000	-6.839	0.100
26.100	-26.881	0.100
26.200	-14.496	0.100
26.300	5.499	0.100
26.400	-14.145	0.100
26.500	-19.518	0.100
26.600	-2.008	0.100
26.700	-16.333	0.100
26.800	-15.047	0.100
26.900	-6.928	0.100
27.000	-7.501	0.100
27.100	-19.242	0.100
27.200	-6.286	0.100
27.300	-5.542	0.100
27.400	-4.562	0.100
27.500	-7.674	0.100
27.600	-9.068	0.100
27.700	-12.085	0.100
27.800	-15.294	0.100
27.900	-36.809	0.100
28.000	-7.875	0.100
28.100	-13.495	0.100
28.200	-6.861	0.100
28.300	-1.803	0.100
28.400	-21.607	0.100
28.500	2.964	0.100
28.600	-8.465	0.100
28.700	-1.069	0.100
28.800	-1.887	0.100
28.900	-16.673	0.100
29.000	-14.656	0.100
29.100	-3.976	0.100
29.200	-20.072	0.100
29.300	-36.710	0.100
29.400	8.748	0.100
29.500	-0.605	0.100
29.600	-2.180	0.100
29.700	-14.940	0.100
29.800	-5.869	0.100
29.900	2.831	0.100
30.000	-12.270	0.100
30.100	-12.467	0.100
30.200	-23.233	0.100
30.300	-14.412	0.100
30.400	-16.980	0.100
30.500	-15.115	0.100
30.600	-7.940	0.100
30.700	-11.031	0.100
30.800	-10.940	0.100
30.900	0.517	0.100
31.000	-0.403	0.100
31.100	-0.366	0.100
31.200	7.528	0.100
31.300	-1.815	0.100
31.400	6.475	0.100
31.500	28.219	0.100
31.600	3.333	0.100
31.700	-9.274	0.100
31.800	19.356	0.100
31.900	7.738	0.100
32.000	9.615	0.100
32.100	17.476	0.100
32.200	8.171	0.100
32.300	4.984	0.100
32.400	3.657	0.100
32.500	11.797	0.100
32.600	26.520	0.100
32.700	16.935	0.100
32.800	7.060	0.100
32.900	-1.581	0.100
33.000	4.580	0.100
33.100	10.257	0.100
33.200	11.087	0.100
33.300	16.386	0.100
33.400	-3.434	0.100
33.500	14.956	0.100
33.600	-1.891	0.100
33.700	4.434	0.100
33.800	1.524	0.100
33.900	14.122	0.100
34.000	-8.183	0.100
34.100	11.024	0.100
34.200	18.268	0.100
34.300	1.211	0.100
34.400	-9.820	0.100
34.500	7.144	0.100
34.600	10.237	0.100
34.700	15.253	0.100
34.800	20.023	0.100
34.900	6.884	0.100
35.000	11.680	0.100
35.100	6.616	0.100
35.200	7.382	0.100
35.300	1.943	0.100
35.400	7.328	0.100
35.500	-0.428	0.100
35.600	5.646	0.100
35.700	11.771	0.100
35.800	6.583	0.100
35.900	32.388	0.100
36.000	33.028	0.100
36.100	18.994	0.100
36.200	22.578	0.100
36.300	10.079	0.100
36.400	8.493	0.100
36.500	30.098	0.100
36.600	23.606	0.100
36.700	30.705	0.100
36.800	20.193	0.100
36.900	6.239	0.100
37.000	28.271	0.100
37.100	30.210	0.100
37.200	31.038	0.100
37.300	22.925	0.100
37.400	21.559	0.100
37.500	38.367	0.100
37.600	29.181	0.100
37.700	-0.494	0.100
37.800	32.470	0.100
37.900	28.402	0.100
38.000	28.449	0.100
38.100	37.352	0.100
38.200	36.489	0.100
38.300	24.372	0.100
38.400	25.626	0.100
38.500	23.774	0.100
38.600	30.746	0.100
38.700	16.725	0.100
38.800	33.827	0.100
38.900	12.256	0.100
39.000	34.274	0.100
39.100	18.267	0.100
39.200	44.214	0.100
39.300	39.569	0.100
39.400	3.684	0.100
39.500	27.261	0.100
39.600	41.358	0.100
39.700	35.532	0.100
39.800	37.503	0.100
39.900	30.803	0.100
40.000	30.633	0.100
40.100	25.267	0.100
40.200	27.300	0.100
40.300	31.345	0.100
40.400	23.285	0.100
40.500	13.453	0.100
40.600	44.405	0.100
40.700	26.884	0.100
40.800	34.237	0.100
40.900	24.406	0.100
41.000	34.433	0.100
41.100	40.001	0.100
41.200	25.040	0.100
41.300	21.720	0.100
41.400	17.939	0.100
41.500	14.380	0.100
41.600	35.095	0.100
41.700	27.871	0.100
41.800	26.352	0.100
41.900	40.825	0.100
42.000	15.428	0.100
42.100	26.077	0.100
42.200	20.073	0.100
42.300	18.483	0.100
42.400	28.883	0.100
42.500	27.106	0.100
42.600	20.725	0.100
42.700	34.537	0.100
42.800	9.904	0.100
42.900	23.042	0.100
43.000	23.091	0.100
43.100	21.270	0.100
43.200	22.008	0.100
43.300	32.563	0.100
43.400	28.652	0.100
43.500	23.279	0.100
43.600	13.103	0.100
43.700	20.453	0.100
43.800	15.007	0.100
43.900	24.942	0.100
44.000	29.323	0.100
44.100	21.682	0.100
44.200	17.066	0.100
44.300	30.067	0.100
44.400	40.475	0.100
44.500	9.332	0.100
44.600	24.403	0.100
44.700	28.002	0.100
44.800	27.694	0.100
44.900	10.735	0.100
45.000	25.140	0.100
45.100	-2.286	0.100
45.200	15.501	0.100
45.300	11.392	0.100
45.400	33.235	0.100
45.500	26.823	0.100
45.600	17.035	0.100
45.700	20.553	0.100
45.800	14.044	0.100
45.900	15.779	0.100
46.000	13.256	0.100
46.100	21.279	0.100
46.200	17.335	0.100
46.300	19.053	0.100
46.400	9.996	0.100
46.500	22.369	0.100
46.600	15.881	0.100
46.700	-4.218	0.100
46.800	19.979	0.100
46.900	14.795	0.100
47.000	3.691	0.100
47.100	12.893	0.100
47.200	3.213	0.100
47.300	30.157	0.100
47.400	12.675	0.100
47.500	15.263	0.100
47.600	25.642	0.100
47.700	21.808	0.100
47.800	4.495	0.100
47.900	16.174	0.100
48.000	4.283	0.100
48.100	25.710	0.100
48.200	18.795	0.100
48.300	11.078	0.100
48.400	-10.095	0.100
48.500	4.160	0.100
48.600	3.300	0.100
48.700	16.639	0.100
48.800	7.765	0.100
48.900	8.462	0.100
49.000	-8.696	0.100
49.100	18.868	0.100
49.200	22.770	0.100
49.300	8.316	0.100
49.400	10.763	0.100
49.500	15.813	0.100
49.600	21.748	0.100
49.700	15.059	0.100
49.800	16.575	0.100
49.900	2.738	0.100
50.000	21.981	0.100
50.100	9.286	0.100
50.200	4.984	0.100
50.300	-3.114	0.100
50.400	9.837	0.100
50.500	-6.010	0.100
50.600	30.957	0.100
50.700	21.989	0.100
50.800	9.066	0.100
50.900	11.995	0.100
51.000	20.232	0.100
51.100	10.733	0.100
51.200	10.913	0.100
51.300	12.857	0.100
51.400	-13.455	0.100
51.500	15.771	0.100
51.600	10.539	0.100
51.700	7.971	0.100
51.800	7.274	0.100
51.900	9.726	0.100
52.000	25.889	0.100
52.100	9.792	0.100
52.200	18.748	0.100
52.300	3.534	0.100
52.400	11.703	0.100
52.500	18.143	0.100
52.600	17.719	0.100
52.700	18.954	0.100
52.800	22.562	0.100
52.900	0.697	0.100
53.000	-0.160	0.100
53.100	-2.755	0.100
53.200	12.200	0.100
53.300	22.729	0.100
53.400	6.569	0.100
53.500	3.839	0.100
53.600	20.998	0.100
53.700	1.709	0.100
53.800	5.126	0.100
53.900	22.632	0.100
54.000	8.202	0.100
54.100	23.491	0.100
54.200	17.085	0.100
54.300	22.313	0.100
54.400	3.122	0.100
54.500	4.966	0.100
54.600	2.986	0.100
54.700	0.904	0.100
54.800	5.775	0.100
54.900	12.587	0.100
55.000	4.153	0.100
55.100	14.863	0.100
55.200	26.347	0.100
55.300	5.616	0.100
55.400	5.646	0.100
55.500	20.556	0.100
55.600	15.758	0.100
55.700	7.450	0.100
55.800	-0.125	0.100
55.900	27.265	0.100
56.000	7.161	0.100
56.100	11.501	0.100
56.200	8.459	0.100
56.300	20.297	0.100
56.400	28.045	0.100
56.500	3.047	0.100
56.600	7.908	0.100
56.700	9.484	0.100
56.800	5.377	0.100
56.900	-5.718	0.100
57.000	38.720	0.100
57.100	9.773	0.100
57.200	26.415	0.100
57.300	7.404	0.100
57.400	31.397	0.100
57.500	4.558	0.100
57.600	16.736	0.100
57.700	7.023	0.100
57.800	6.677	0.100
57.900	19.989	0.100
58.000	24.951	0.100
58.100	9.236	0.100
58.200	21.885	0.100
58.300	-6.917	0.100
58.400	32.221	0.100
58.500	6.161	0.100
58.600	1.932	0.100
58.700	14.468	0.100
58.800	7.008	0.100
58.900	13.463	0.100
59.000	25.126	0.100
59.100	5.808	0.100
59.200	16.301	0.100
59.300	4.387	0.100
59.400	23.000	0.100
59.500	11.179	0.100
59.600	15.355	0.100
59.700	9.466	0.100
59.800	43.798	0.100
59.900	8.085	0.100
60.000	13.980	0.100
60.100	11.033	0.100
60.200	3.754	0.100
60.300	-5.037	0.100
60.400	25.329	0.100
60.500	24.481	0.100
60.600	6.364	0.100
60.700	7.762	0.100
60.800	14.806	0.100
60.900	19.717	0.100
61.000	18.948	0.100
61.100	38.188	0.100
61.200	12.977	0.100
61.300	11.699	0.100
61.400	14.780	0.100
61.500	12.956	0.100
61.600	17.637	0.100
61.700	21.490	0.100
61.800	15.947	0.100
61.900	14.634	0.100
62.000	22.238	0.100
62.100	8.240	0.100
62.200	20.122	0.100
62.300	19.339	0.100
62.400	18.497	0.100
62.500	14.798	0.100
62.600	24.875	0.100
62.700	11.359	0.100
62.800	14.214	0.100
62.900	30.399	0.100
63.000	-1.004	0.100
63.100	29.430	0.100
63.200	16.271	0.100
63.300	16.594	0.100
63.400	5.397	0.100
63.500	20.919	0.100
63.600	-1.537	0.100
63.700	16.329	0.100
63.800	3.428	0.100
63.900	5.114	0.100
64.000	3.148	0.100
64.100	21.001	0.100
64.200	24.982	0.100
64.300	26.561	0.100
64.400	-2.350	0.100
64.500	25.112	0.100
64.600	19.113	0.100
64.700	23.948	0.100
64.800	-0.814	0.100
64.900	22.882	0.100
65.000	24.979	0.100
65.100	11.586	0.100
65.200	18.695	0.100
65.300	35.360	0.100
65.400	12.003	0.100
65.500	20.803	0.100
65.600	22.937	0.100
65.700	20.358	0.100
65.800	11.081	0.100
65.900	14.051	0.100
66.000	16.287	0.100
66.100	23.142	0.100
66.200	28.949	0.100
66.300	29.233	0.100
66.400	13.418	0.100
66.500	19.925	0.100
66.600	37.059	0.100
66.700	4.995	0.100
66.800	19.147	0.100
66.900	28.440	0.100
67.000	24.844	0.100
67.100	21.834	0.100
67.200	6.928	0.100
67.300	27.884	0.100
67.400	25.860	0.100
67.500	1.081	0.100
67.600	31.469	0.100
67.700	29.004	0.100
67.800	3.250	0.100
67.900	17.050	0.100
68.000	38.265	0.100
68.100	25.005	0.100
68.200	27.891	0.100
68.300	41.428	0.100
68.400	17.442	0.100
68.500	25.591	0.100
68.600	24.522	0.100
68.700	34.578	0.100
68.800	17.553	0.100
68.900	19.679	0.100
69.000	13.953	0.100
69.100	22.697	0.100
69.200	34.757	0.100
69.300	21.437	0.100
69.400	22.265	0.100
69.500	12.197	0.100
69.600	12.569	0.100
69.700	28.878	0.100
69.800	9.724	0.100
69.900	34.856	0.100
70.000	16.774	0.100
70.100	16.334	0.100
70.200	23.914	0.100
70.300	9.956	0.100
70.400	22.555	0.100
70.500	23.026	0.100
70.600	20.477	0.100
70.700	12.614	0.100
70.800	2.324	0.100
70.900	9.553	0.100
71.000	29.102	0.100
71.100	11.896	0.100
71.200	33.676	0.100
71.300	21.303	0.100
71.400	29.202	0.100
71.500	12.192	0.100
71.600	29.783	0.100
71.700	14.246	0.100
71.800	18.439	0.100
71.900	31.680	0.100
72.000	26.308	0.100
72.100	19.923	0.100
72.200	5.767	0.100
72.300	23.301	0.100
72.400	30.376	0.100
72.500	0.931	0.100
72.600	8.316	0.100
72.700	30.130	0.100
72.800	25.873	0.100
72.900	13.755	0.100
73.000	19.726	0.100
73.100	20.247	0.100
73.200	2.857	0.100
73.300	17.872	0.100
73.400	19.006	0.100
73.500	32.523	0.100
73.600	20.410	0.100
73.700	29.882	0.100
73.800	22.663	0.100
73.900	6.355	0.100
74.000	37.234	0.100
74.100	26.314	0.100
74.200	26.294	0.100
74.300	21.514	0.100
74.400	8.500	0.100
74.500	16.038	0.100
74.600	11.554	0.100
74.700	26.713	0.100
74.800	14.443	0.100
74.900	12.549	0.100
75.000	17.803	0.100
75.100	25.245	0.100
75.200	18.020	0.100
75.300	12.792	0.100
75.400	20.693	0.100
75.500	31.399	0.100
75.600	8.427	0.100
75.700	30.143	0.100
75.800	29.250	0.100
75.900	16.812	0.100
76.000	26.701	0.100
76.100	12.859	0.100
76.200	36.115	0.100
76.300	15.409	0.100
76.400	5.685	0.100
76.500	22.557	0.100
76.600	19.610	0.100
76.700	15.711	0.100
76.800	19.426	0.100
76.900	14.582	0.100
77.000	21.370	0.100
77.100	11.073	0.100
77.200	22.489	0.100
77.300	7.280	0.100
77.400	31.565	0.100
77.500	34.917	0.100
77.600	3.514	0.100
77.700	27.761	0.100
77.800	40.502	0.100
77.900	16.687	0.100
78.000	39.959	0.100
78.100	6.719	0.100
78.200	14.975	0.100
78.300	10.364	0.100
78.400	13.876	0.100
78.500	38.423	0.100
78.600	-1.704	0.100
78.700	10.968	0.100
78.800	22.976	0.100
78.900	19.843	0.100
79.000	34.951	0.100
79.100	17.799	0.100
79.200	-5.944	0.100
79.300	22.520	0.100
79.400	23.858	0.100
79.500	19.588	0.100
79.600	28.053	0.100
79.700	15.805	0.100
79.800	18.602	0.100
79.900	12.117	0.100
80.000	29.326	0.100
80.100	31.779	0.100
80.200	19.157	0.100
80.300	31.757	0.100
80.400	1.259	0.100
80.500	14.483	0.100
80.600	38.307	0.100
80.700	30.616	0.100
80.800	17.853	0.100
80.900	32.387	0.100
81.000	26.299	0.100
81.100	9.497	0.100
81.200	10.757	0.100
81.300	31.305	0.100
81.400	23.583	0.100
81.500	14.030	0.100
81.600	28.944	0.100
81.700	33.390	0.100
81.800	11.235	0.100
81.900	26.347	0.100
82.000	13.684	0.100
82.100	39.953	0.100
82.200	0.014	0.100
82.300	23.813	0.100
82.400	11.721	0.100
82.500	32.618	0.100
82.600	27.067	0.100
82.700	18.936	0.100
82.800	32.886	0.100
82.900	32.370	0.100
83.000	16.989	0.100
83.100	13.578	0.100
83.200	29.660	0.100
83.300	27.924	0.100
83.400	21.791	0.100
83.500	24.883	0.100
83.600	16.967	0.100
83.700	8.295	0.100
83.800	24.971	0.100
83.900	25.176	0.100
84.000	16.772	0.100
84.100	0.388	0.100
84.200	21.812	0.100
84.300	34.909	0.100
84.400	15.334	0.100
84.500	8.554	0.100
84.600	37.586	0.100
84.700	26.915	0.100
84.800	-1.074	0.100
84.900	2.419	0.100
85.000	33.147	0.100
85.100	32.224	0.100
85.200	30.593	0.100
85.300	27.362	0.100
85.400	32.748	0.100
85.500	25.802	0.100
85.600	4.932	0.100
85.700	29.208	0.100
85.800	6.533	0.100
85.900	24.302	0.100
86.000	21.725	0.100
86.100	14.504	0.100
86.200	20.062	0.100
86.300	-0.688	0.100
86.400	47.760	0.100
86.500	25.194	0.100
86.600	39.439	0.100
86.700	16.086	0.100
86.800	26.603	0.100
86.900	26.806	0.100
87.000	21.063	0.100
87.100	8.343	0.100
87.200	37.034	0.100
87.300	27.435	0.100
87.400	39.821	0.100
87.500	19.447	0.100
87.600	8.371	0.100
87.700	33.668	0.100
87.800	37.504	0.100
87.900	14.337	0.100
88.000	8.330	0.100
88.100	24.361	0.100
88.200	25.803	0.100
88.300	37.872	0.100
88.400	17.264	0.100
88.500	38.153	0.100
88.600	22.869	0.100
88.700	33.444	0.100
88.800	22.719	0.100
88.900	34.489	0.100
89.000	18.949	0.100
89.100	30.976	0.100
89.200	24.092	0.100
89.300	27.666	0.100
89.400	32.602	0.100
89.500	31.759	0.100
89.600	24.763	0.100
89.700	30.120	0.100
89.800	22.257	0.100
89.900	18.888	0.100
90.000	11.269	0.100
90.100	39.055	0.100
90.200	18.884	0.100
90.300	46.465	0.100
90.400	20.304	0.100
90.500	15.688	0.100
90.600	17.337	0.100
90.700	24.366	0.100
90.800	2.768	0.100
90.900	24.120	0.100
91.000	18.849	0.100
91.100	12.473	0.100
91.200	5.397	0.100
91.300	16.996	0.100
91.400	25.008	0.100
91.500	-4.399	0.100
91.600	15.364	0.100
91.700	23.358	0.100
91.800	-9.088	0.100
91.900	33.557	0.100
92.000	1.075	0.100
92.100	10.736	0.100
92.200	-5.292	0.100
92.300	0.153	0.100
92.400	4.295	0.100
92.500	-4.206	0.100
92.600	-1.796	0.100
92.700	-4.781	0.100
92.800	-14.976	0.100
92.900	18.483	0.100
93.000	1.015	0.100
93.100	0.085	0.100
93.200	2.792	0.100
93.300	-3.621	0.100
93.400	-2.446	0.100
93.500	-15.325	0.100
93.600	-11.602	0.100
93.700	1.952	0.100
93.800	-5.740	0.100
93.900	-5.262	0.100
94.000	-11.828	0.100
94.100	-9.196	0.100
94.200	-1.391	0.100
94.300	-8.444	0.100
94.400	-4.070	0.100
94.500	-1.434	0.100
94.600	-15.051	0.100
94.700	-7.876	0.100
94.800	6.618	0.100
94.900	-3.170	0.100
95.000	-6.670	0.100
95.100	-25.554	0.100
95.200	-16.920	0.100
95.300	-17.122	0.100
95.400	0.211	0.100
95.500	5.148	0.100
95.600	-6.007	0.100
95.700	7.933	0.100
95.800	-14.035	0.100
95.900	-21.583	0.100
96.000	-20.893	0.100
96.100	-11.554	0.100
96.200	-29.359	0.100
96.300	2.714	0.100
96.400	-0.313	0.100
96.500	-11.644	0.100
96.600	-14.723	0.100
96.700	-22.893	0.100
96.800	3.792	0.100
96.900	-9.462	0.100
97.000	-23.930	0.100
97.100	-16.067	0.100
97.200	-1.347	0.100
97.300	-12.718	0.100
97.400	-5.094	0.100
97.500	-12.824	0.100
97.600	-22.874	0.100
97.700	-1.227	0.100
97.800	-16.602	0.100
97.900	0.401	0.100
98.000	-7.266	0.100
98.100	-12.727	0.100
98.200	-9.349	0.100
98.300	-10.521	0.100
98.400	-29.706	0.100
98.500	7.273	0.100
98.600	8.225	0.100
98.700	-15.902	0.100
98.800	8.826	0.100
98.900	-17.125	0.100
99.000	-4.626	0.100
99.100	-6.179	0.100
99.200	2.812	0.100
99.300	-10.166	0.100
99.400	-17.435	0.100
99.500	-6.761	0.100
99.600	-15.076	0.100
99.700	-10.384	0.100
99.800	-0.763	0.100
99.900	19.071	0.100
100.000	-1.117	0.100
100.100	-6.457	0.100
100.200	-20.247	0.100
100.300	1.849	0.100
100.400	-17.387	0.100
100.500	-10.912	0.100
100.600	2.351	0.100
100.700	-7.049	0.100
100.800	3.074	0.100
100.900	-9.894	0.100
101.000	5.913	0.100
101.100	-13.741	0.100
101.200	0.092	0.100
101.300	-14.087	0.100
101.400	0.487	0.100
101.500	-22.023	0.100
101.600	-0.989	0.100
101.700	-11.954	0.100
101.800	-3.035	0.100
101.900	-8.533	0.100
102.000	-12.279	0.100
102.100	-3.640	0.100
102.200	-18.545	0.100
102.300	23.016	0.100
102.400	-12.471	0.100
102.500	-5.237	0.100
102.600	-17.307	0.100
102.700	0.657	0.100
102.800	-8.045	0.100
102.900	-11.965	0.100
103.000	-1.158	0.100
103.100	-10.077	0.100
103.200	-1.188	0.100
103.300	-13.744	0.100
103.400	-14.422	0.100
103.500	-6.177	0.100
103.600	3.372	0.100
103.700	-13.000	0.100
103.800	-18.464	0.100
103.900	-0.715	0.100
104.000	-1.443	0.100
104.100	-11.214	0.100
104.200	7.552	0.100
104.300	-4.844	0.100
104.400	-8.374	0.100
104.500	-7.965	0.100
104.600	-5.182	0.100
104.700	-5.311	0.100
104.800	-6.463	0.100
104.900	-27.916	0.100
105.000	-6.674	0.100
105.100	-14.627	0.100
105.200	-30.363	0.100
105.300	-2.212	0.100
105.400	0.317	0.100
105.500	9.205	0.100
105.600	-10.685	0.100
105.700	-12.759	0.100
105.800	1.568	0.100
105.900	-6.741	0.100
106.000	-14.530	0.100
106.100	16.134	0.100
106.200	-16.746	0.100
106.300	-10.004	0.100
106.400	-2.587	0.100
106.500	-8.951	0.100
106.600	-10.638	0.100
106.700	-12.893	0.100
106.800	-9.175	0.100
106.900	11.185	0.100
107.000	-7.976	0.100
107.100	-19.335	0.100
107.200	-11.653	0.100
107.300	11.465	0.100
107.400	-17.589	0.100
107.500	-11.232	0.100
107.600	-13.082	0.100
107.700	-14.639	0.100
107.800	-23.964	0.100
107.900	-2.838	0.100
108.000	-13.952	0.100
108.100	15.326	0.100
108.200	-8.932	0.100
108.300	-8.598	0.100
108.400	-15.083	0.100
108.500	0.750	0.100
108.600	8.223	0.100
108.700	-20.061	0.100
108.800	-6.451	0.100
108.900	6.912	0.100
109.000	-3.316	0.100
109.100	-1.209	0.100
109.200	3.187	0.100
109.300	-30.261	0.100
109.400	-9.714	0.100
109.500	-12.048	0.100
109.600	1.006	0.100
109.700	-2.729	0.100
109.800	-8.005	0.100
109.900	-5.285	0.100
110.000	-25.770	0.100
110.100	-17.835	0.100
110.200	-13.502	0.100
110.300	-15.562	0.100
110.400	10.405	0.100
110.500	-7.771	0.100
110.600	-11.650	0.100
110.700	-9.350	0.100
110.800	-4.070	0.100
110.900	-16.525	0.100
111.000	-6.647	0.100
111.100	-14.939	0.100
111.200	-15.098	0.100
111.300	-8.673	0.100
111.400	-10.235	0.100
111.500	-11.387	0.100
111.600	-11.425	0.100
111.700	-4.342	0.100
111.800	-10.646	0.100
111.900	2.762	0.100
112.000	-14.926	0.100
112.100	-1.680	0.100
112.200	-5.511	0.100
112.300	-9.216	0.100
112.400	-1.550	0.100
112.500	-11.815	0.100
112.600	-8.391	0.100
112.700	-6.854	0.100
112.800	-17.246	0.100
112.900	-19.704	0.100
113.000	-16.826	0.100
113.100	-6.674	0.100
113.200	9.602	0.100
113.300	-18.549	0.100
113.400	-0.491	0.100
113.500	-29.253	0.100
113.600	-26.714	0.100
113.700	-8.831	0.100
113.800	-10.408	0.100
113.900	-6.209	0.100
114.000	8.339	0.100
114.100	-18.424	0.100
114.200	-16.505	0.100
114.300	-20.541	0.100
114.400	-1.862	0.100
114.500	0.688	0.100
114.600	-7.602	0.100
114.700	-3.492	0.100
114.800	-29.256	0.100
114.900	-13.200	0.100
115.000	6.951	0.100
115.100	2.077	0.100
115.200	-17.558	0.100
115.300	-10.871	0.100
115.400	-11.919	0.100
115.500	-23.226	0.100
115.600	-19.948	0.100
115.700	-14.273	0.100
115.800	-4.534	0.100
115.900	-0.687	0.100
116.000	-14.300	0.100
116.100	-15.447	0.100
116.200	-22.264	0.100
116.300	-25.391	0.100
116.400	-18.351	0.100
116.500	-5.442	0.100
116.600	-7.559	0.100
116.700	-3.659	0.100
116.800	-10.743	0.100
116.900	-27.773	0.100
117.000	-3.375	0.100
117.100	0.053	0.100
117.200	-12.066	0.100
117.300	-5.451	0.100
117.400	-13.412	0.100
117.500	-20.799	0.100
117.600	-9.692	0.100
117.700	7.316	0.100
117.800	7.761	0.100
117.900	-4.685	0.100
118.000	-20.697	0.100
118.100	-31.445	0.100
118.200	-8.823	0.100
118.300	-14.145	0.100
118.400	-13.697	0.100
118.500	-20.505	0.100
118.600	-4.713	0.100
118.700	-9.046	0.100
118.800	-23.901	0.100
118.900	-4.052	0.100
119.000	0.371	0.100
119.100	-1.472	0.100
119.200	-17.618	0.100
119.300	6.790	0.100
119.400	-11.003	0.100
119.500	-12.519	0.100
119.600	-7.556	0.100
119.700	-17.215	0.100
119.800	-23.755	0.100
119.900	-8.647	0.100
120.000	-11.389	0.100
120.100	-21.392	0.100
120.200	-3.543	0.100
120.300	0.122	0.100
120.400	-16.477	0.100
120.500	-12.535	0.100
120.600	-14.573	0.100
120.700	-11.446	0.100
120.800	-2.891	0.100
120.900	-10.909	0.100
121.000	-7.154	0.100
121.100	-16.748	0.100
121.200	-16.443	0.100
121.300	-27.225	0.100
121.400	2.607	0.100
121.500	-18.440	0.100
121.600	-5.738	0.100
121.700	-0.659	0.100
121.800	-25.671	0.100
121.900	-5.890	0.100
122.000	-12.355	0.100
122.100	-5.128	0.100
122.200	-1.027	0.100
122.300	-10.219	0.100
122.400	1.465	0.100
122.500	-11.168	0.100
122.600	-20.118	0.100
122.700	14.616	0.100
122.800	-18.087	0.100
122.900	-32.377	0.100
123.000	0.563	0.100
123.100	-12.818	0.100
123.200	-12.299	0.100
123.300	-3.567	0.100
123.400	-18.517	0.100
123.500	-1.309	0.100
123.600	4.949	0.100
123.700	-8.256	0.100
123.800	0.771	0.100
123.900	-18.907	0.100
124.000	5.186	0.100
124.100	-22.140	0.100
124.200	-22.141	0.100
124.300	-8.399	0.100
124.400	-5.801	0.100
124.500	-15.905	0.100
124.600	-14.141	0.100
124.700	3.105	0.100
124.800	-9.357	0.100
124.900	-3.240	0.100
125.000	-26.515	0.100
125.100	-22.581	0.100
125.200	-24.071	0.100
125.300	-6.170	0.100
125.400	-2.412	0.100
125.500	-31.442	0.100
125.600	-14.097	0.100
125.700	-8.338	0.100
125.800	-18.407	0.100
125.900	-18.305	0.100
126.000	5.230	0.100
126.100	-20.670	0.100
126.200	3.361	0.100
126.300	-27.765	0.100
126.400	-10.730	0.100
126.500	1.666	0.100
126.600	-1.206	0.100
126.700	-9.429	0.100
126.800	-4.892	0.100
126.900	-3.801	0.100
127.000	-16.106	0.100
127.100	-20.562	0.100
127.200	-14.818	0.100
127.300	-32.025	0.100
127.400	-21.869	0.100
127.500	-17.277	0.100
127.600	3.138	0.100
127.700	-9.784	0.100
127.800	-10.416	0.100
127.900	-4.978	0.100
128.000	-17.210	0.100
128.100	1.530	0.100
128.200	-9.984	0.100
128.300	-11.701	0.100
128.400	-27.291	0.100
128.500	-14.734	0.100
128.600	-2.324	0.100
128.700	-0.099	0.100
128.800	-5.702	0.100
128.900	-17.727	0.100
129.000	-25.143	0.100
129.100	-23.477	0.100
129.200	-9.743	0.100
129.300	11.397	0.100
129.400	-4.519	0.100
129.500	-15.537	0.100
129.600	-14.590	0.100
129.700	-19.124	0.100
129.800	-6.487	0.100
129.900	-36.624	0.100
130.000	-6.261	0.100
130.100	-10.457	0.100
130.200	5.663	0.100
130.300	-21.932	0.100
130.400	2.820	0.100
130.500	-6.140	0.100
130.600	-20.263	0.100
130.700	0.716	0.100
130.800	-12.413	0.100
130.900	-14.626	0.100
131.000	-20.492	0.100
131.100	-5.961	0.100
131.200	-11.235	0.100
131.300	9.337	0.100
131.400	-2.782	0.100
131.500	-13.091	0.100
131.600	-11.683	0.100
131.700	-25.248	0.100
131.800	0.977	0.100
131.900	-14.075	0.100
132.000	-15.681	0.100
132.100	-8.265	0.100
132.200	-9.874	0.100
132.300	-10.939	0.100
132.400	-4.943	0.100
132.500	-4.698	0.100
132.600	-15.438	0.100
132.700	-18.126	0.100
132.800	-6.902	0.100
132.900	-35.859	0.100
133.000	-4.885	0.100
133.100	-16.707	0.100
133.200	2.275	0.100
133.300	-19.313	0.100
133.400	4.385	0.100
133.500	-13.102	0.100
133.600	-5.859	0.100
133.700	4.350	0.100
133.800	-28.124	0.100
133.900	-17.280	0.100
134.000	-21.361	0.100
134.100	-18.853	0.100
134.200	-9.682	0.100
134.300	-22.970	0.100
134.400	-13.021	0.100
134.500	-8.621	0.100
134.600	-28.235	0.100
134.700	-4.878	0.100
134.800	-20.784	0.100
134.900	-6.533	0.100
135.000	-13.603	0.100
135.100	-16.743	0.100
135.200	-39.589	0.100
135.300	-12.810	0.100
135.400	-11.337	0.100
135.500	-6.098	0.100
135.600	-6.045	0.100
135.700	-17.631	0.100
135.800	-5.634	0.100
135.900	-19.981	0.100
136.000	-8.727	0.100
136.100	-7.294	0.100
136.200	-29.646	0.100
136.300	-23.925	0.100
136.400	-9.866	0.100
136.500	-26.098	0.100
136.600	-18.945	0.100
136.700	-8.073	0.100
136.800	-15.525	0.100
136.900	-11.245	0.100
137.000	-12.492	0.100
137.100	3.307	0.100
137.200	-16.771	0.100
137.300	-7.004	0.100
137.400	-28.696	0.100
137.500	0.009	0.100
137.600	-4.843	0.100
137.700	-5.359	0.100
137.800	-13.211	0.100
137.900	-17.678	0.100
138.000	-19.421	0.100
138.100	-11.591	0.100
138.200	-32.365	0.100
138.300	-10.207	0.100
138.400	-1.702	0.100
138.500	-5.362	0.100
138.600	-14.764	0.100
138.700	-5.719	0.100
138.800	-21.273	0.100
138.900	-12.621	0.100
139.000	-12.963	0.100
139.100	-19.421	0.100
139.200	-21.162	0.100
139.300	-12.088	0.100
139.400	-11.280	0.100
139.500	-24.822	0.100
139.600	-13.390	0.100
139.700	-2.023	0.100
139.800	-20.001	0.100
139.900	-13.774	0.100
140.000	-14.714	0.100
140.100	-12.308	0.100
140.200	-7.772	0.100
140.300	-12.658	0.100
140.400	-17.985	0.100
140.500	-2.726	0.100
140.600	-2.291	0.100
140.700	-36.102	0.100
140.800	-5.543	0.100
140.900	-22.496	0.100
141.000	-12.057	0.100
141.100	-18.103	0.100
141.200	-3.077	0.100
141.300	-11.074	0.100
141.400	-20.736	0.100
141.500	-8.284	0.100
141.600	-16.195	0.100
141.700	-17.787	0.100
141.800	-19.346	0.100
141.900	-4.029	0.100
142.000	-7.640	0.100
142.100	3.002	0.100
142.200	-15.948	0.100
142.300	-9.680	0.100
142.400	-15.284	0.100
142.500	-22.220	0.100
142.600	-14.255	0.100
142.700	3.679	0.100
142.800	-1.983	0.100
142.900	-28.859	0.100
143.000	-7.228	0.100
143.100	-9.315	0.100
143.200	-13.504	0.100
143.300	-7.375	0.100
143.400	-33.220	0.100
143.500	-14.677	0.100
143.600	1.914	0.100
143.700	-3.240	0.100
143.800	-11.144	0.100
143.900	-12.157	0.100
144.000	-21.050	0.100
144.100	-3.923	0.100
144.200	-29.432	0.100
144.300	-8.055	0.100
144.400	-26.846	0.100
144.500	-25.736	0.100
144.600	-24.862	0.100
144.700	7.941	0.100
144.800	-16.230	0.100
144.900	-8.000	0.100
145.000	-12.452	0.100
145.100	-25.990	0.100
145.200	-15.889	0.100
145.300	-9.861	0.100
145.400	14.644	0.100
145.500	-12.527	0.100
145.600	-30.803	0.100
145.700	-16.042	0.100
145.800	-11.892	0.100
145.900	-22.955	0.100
146.000	-10.641	0.100
146.100	-29.478	0.100
146.200	-8.172	0.100
146.300	-17.958	0.100
146.400	5.814	0.100
146.500	-10.518	0.100
146.600	-8.890	0.100
146.700	-2.256	0.100
146.800	-6.535	0.100
146.900	-7.740	0.100
147.000	-12.240	0.100
147.100	-25.366	0.100
147.200	-6.842	0.100
147.300	0.872	0.100
147.400	-25.211	0.100
147.500	-19.019	0.100
147.600	-0.062	0.100
147.700	3.234	0.100
147.800	-15.925	0.100
147.900	-12.339	0.100
148.000	-22.688	0.100
148.100	-6.614	0.100
148.200	2.345	0.100
148.300	-32.301	0.100
148.400	-19.067	0.100
148.500	-3.628	0.100
148.600	-6.067	0.100
148.700	-12.706	0.100
148.800	-6.641	0.100
148.900	-8.928	0.100
149.000	-19.895	0.100
149.100	-15.513	0.100
149.200	-1.820	0.100
149.300	-18.273	0.100
149.400	-18.870	0.100
149.500	-2.835	0.100
149.600	4.804	0.100
149.700	-9.175	0.100
149.800	-6.287	0.100
149.900	-22.108	0.100
150.000	-10.128	0.100
150.100	-20.390	0.100
150.200	-11.160	0.100
150.300	-12.592	0.100
150.400	-7.496	0.100
150.500	-21.026	0.100
150.600	-25.990	0.100
150.700	-4.059	0.100
150.800	-10.769	0.100
150.900	-5.613	0.100
151.000	-10.062	0.100
151.100	-8.474	0.100
151.200	-44.066	0.100
151.300	-6.358	0.100
151.400	-16.962	0.100
151.500	-20.133	0.100
151.600	-11.655	0.100
151.700	-12.225	0.100
151.800	-1.990	0.100
151.900	-6.065	0.100
152.000	-30.875	0.100
152.100	-7.727	0.100
152.200	-4.699	0.100
152.300	-1.865	0.100
152.400	6.337	0.100
152.500	-10.071	0.100
152.600	-16.941	0.100
152.700	-16.776	0.100
152.800	-15.170	0.100
152.900	-12.033	0.100
153.000	-33.415	0.100
153.100	-13.779	0.100
153.200	-22.960	0.100
153.300	-3.384	0.100
153.400	-5.986	0.100
153.500	-20.245	0.100
153.600	3.674	0.100
153.700	-13.754	0.100
153.800	-16.967	0.100
153.900	-14.325	0.100
154.000	-8.155	0.100
154.100	-27.211	0.100
154.200	-1.566	0.100
154.300	-6.370	0.100
154.400	-14.145	0.100
154.500	-7.950	0.100
154.600	9.646	0.100
154.700	-21.255	0.100
154.800	-17.316	0.100
154.900	-32.937	0.100
155.000	5.045	0.100
155.100	-12.554	0.100
155.200	-9.700	0.100
155.300	-4.455	0.100
155.400	-4.811	0.100
155.500	3.954	0.100
155.600	-22.397	0.100
155.700	-20.997	0.100
155.800	-13.942	0.100
155.900	-8.990	0.100
156.000	-1.802	0.100
156.100	-21.814	0.100
156.200	-5.132	0.100
156.300	-17.329	0.100
156.400	-3.176	0.100
156.500	-13.086	0.100
156.600	-35.809	0.100
156.700	-10.329	0.100
156.800	10.912	0.100
156.900	0.930	0.100
157.000	-13.802	0.100
157.100	-3.895	0.100
157.200	-9.279	0.100
157.300	-11.342	0.100
157.400	-0.590	0.100
157.500	-14.645	0.100
157.600	-24.990	0.100
157.700	-17.253	0.100
157.800	-10.677	0.100
157.900	-14.967	0.100
158.000	-8.792	0.100
158.100	-26.751	0.100
158.200	-14.127	0.100
158.300	-21.508	0.100
158.400	-17.391	0.100
158.500	-25.679	0.100
158.600	-14.782	0.100
158.700	-3.226	0.100
158.800	-16.051	0.100
158.900	1.410	0.100
159.000	-32.470	0.100
159.100	-22.193	0.100
159.200	1.765	0.100
159.300	6.353	0.100
159.400	-21.542	0.100
159.500	-7.102	0.100
159.600	2.759	0.100
159.700	-16.512	0.100
159.800	-11.329	0.100
159.900	-10.129	0.100
160.000	6.853	0.100
160.100	-13.315	0.100
160.200	-7.862	0.100
160.300	-4.545	0.100
160.400	-14.775	0.100
160.500	-23.225	0.100
160.600	-7.306	0.100
160.700	2.924	0.100
160.800	-9.931	0.100
160.900	-29.420	0.100
161.000	-0.305	0.100
161.100	-21.535	0.100
161.200	-15.734	0.100
161.300	-18.118	0.100
161.400	-14.957	0.100
161.500	-10.758	0.100
161.600	-11.311	0.100
161.700	-2.692	0.100
161.800	-12.809	0.100
161.900	-13.977	0.100
162.000	-13.762	0.100
162.100	-29.750	0.100
162.200	-13.220	0.100
162.300	-0.894	0.100
162.400	-28.033	0.100
162.500	1.169	0.100
162.600	0.191	0.100
162.700	-17.198	0.100
162.800	-11.793	0.100
162.900	-17.437	0.100
163.000	-23.430	0.100
163.100	-32.380	0.100
163.200	-13.626	0.100
163.300	-24.743	0.100
163.400	-16.849	0.100
163.500	-13.420	0.100
163.600	-18.266	0.100
163.700	8.929	0.100
163.800	-14.599	0.100
163.900	-4.199	0.100
164.000	-12.801	0.100
164.100	-18.082	0.100
164.200	-19.510	0.100
164.300	-8.767	0.100
164.400	-16.870	0.100
164.500	-11.642	0.100
164.600	-8.584	0.100
164.700	-8.061	0.100
164.800	-2.580	0.100
164.900	-0.449	0.100
165.000	-6.869	0.100
165.100	-20.971	0.100
165.200	-14.000	0.100
165.300	-6.503	0.100
165.400	-20.888	0.100
165.500	3.310	0.100
165.600	-16.575	0.100
165.700	-14.739	0.100
165.800	-24.907	0.100
165.900	-11.562	0.100
166.000	-17.098	0.100
166.100	-12.616	0.100
166.200	-19.825	0.100
166.300	-13.914	0.100
166.400	-23.107	0.100
166.500	-10.741	0.100
166.600	-13.582	0.100
166.700	-17.346	0.100
166.800	-16.125	0.100
166.900	-16.148	0.100
167.000	2.335	0.100
167.100	-9.858	0.100
167.200	-11.683	0.100
167.300	3.121	0.100
167.400	-23.190	0.100
167.500	2.441	0.100
167.600	-12.141	0.100
167.700	-20.651	0.100
167.800	-29.035	0.100
167.900	-27.467	0.100
168.000	-5.244	0.100
168.100	-11.731	0.100
168.200	9.151	0.100
168.300	-6.029	0.100
168.400	-42.597	0.100
168.500	-2.107	0.100
168.600	-3.582	0.100
168.700	-11.336	0.100
168.800	-15.319	0.100
168.900	-16.386	0.100
169.000	-14.218	0.100
169.100	1.429	0.100
169.200	-2.071	0.100
169.300	-37.960	0.100
169.400	-5.973	0.100
169.500	-24.280	0.100
169.600	0.874	0.100
169.700	14.579	0.100
169.800	-12.104	0.100
169.900	-11.880	0.100
170.000	-19.030	0.100
170.100	0.498	0.100
170.200	-5.547	0.100
170.300	-13.607	0.100
170.400	-5.779	0.100
170.500	-16.365	0.100
170.600	-8.563	0.100
170.700	-8.502	0.100
170.800	-11.170	0.100
170.900	-7.465	0.100
171.000	-22.698	0.100
171.100	-0.696	0.100
171.200	-25.857	0.100
171.300	-2.161	0.100
171.400	-3.395	0.100
171.500	-17.739	0.100
171.600	0.868	0.100
171.700	-9.966	0.100
171.800	-28.638	0.100
171.900	-4.153	0.100
172.000	-14.082	0.100
172.100	-33.049	0.100
172.200	19.697	0.100
172.300	-8.764	0.100
172.400	-21.173	0.100
172.500	-17.670	0.100
172.600	-8.246	0.100
172.700	-10.249	0.100
172.800	-22.146	0.100
172.900	0.169	0.100
173.000	-18.265	0.100
173.100	-10.900	0.100
173.200	-16.969	0.100
173.300	-18.211	0.100
173.400	-8.427	0.100
173.500	6.189	0.100
173.600	-14.330	0.100
173.700	-7.465	0.100
173.800	0.481	0.100
173.900	0.451	0.100
174.000	-24.166	0.100
174.100	-22.116	0.100
174.200	-19.463	0.100
174.300	-4.938	0.100
174.400	-6.432	0.100
174.500	-18.981	0.100
174.600	-13.707	0.100
174.700	-17.118	0.100
174.800	-6.108	0.100
174.900	2.068	0.100
175.000	-15.328	0.100
175.100	-15.196	0.100
175.200	-3.760	0.100
175.300	-1.801	0.100
175.400	-15.283	0.100
175.500	-19.118	0.100
175.600	-20.196	0.100
175.700	-15.503	0.100
175.800	-19.651	0.100
175.900	-9.451	0.100
176.000	0.614	0.100
176.100	3.366	0.100
176.200	-25.557	0.100
176.300	-18.124	0.100
176.400	-15.973	0.100
176.500	-10.162	0.100
176.600	0.042	0.100
176.700	8.514	0.100
176.800	-12.754	0.100
176.900	-9.089	0.100
177.000	1.641	0.100
177.100	-22.555	0.100
177.200	-13.946	0.100
177.300	-26.069	0.100
177.400	-6.004	0.100
177.500	-12.052	0.100
177.600	-22.180	0.100
177.700	-23.744	0.100
177.800	-11.067	0.100
177.900	-18.442	0.100
178.000	-12.108	0.100
178.100	-18.676	0.100
178.200	-10.818	0.100
178.300	-2.483	0.100
178.400	-7.400	0.100
178.500	-21.336	0.100
178.600	-3.548	0.100
178.700	0.209	0.100
178.800	1.425	0.100
178.900	-5.399	0.100
179.000	-13.160	0.100
179.100	-0.798	0.100
179.200	-0.401	0.100
179.300	-12.817	0.100
179.400	-2.075	0.100
179.500	-9.731	0.100
179.600	-18.339	0.100
179.700	-12.131	0.100
179.800	-41.901	0.100
179.900	11.551	0.100
180.000	-21.950	0.100
180.100	5.215	0.100
180.200	-7.275	0.100
180.300	-11.293	0.100
180.400	7.959	0.100
180.500	-22.494	0.100
180.600	-6.639	0.100
180.700	0.173	0.100
180.800	2.154	0.100
180.900	-11.442	0.100
181.000	7.071	0.100
181.100	7.605	0.100
181.200	6.329	0.100
181.300	1.757	0.100
181.400	5.666	0.100
181.500	-2.883	0.100
181.600	21.941	0.100
181.700	14.742	0.100
181.800	7.745	0.100
181.900	13.308	0.100
182.000	-3.615	0.100
182.100	15.142	0.100
182.200	-10.121	0.100
182.300	12.941	0.100
182.400	12.912	0.100
182.500	6.259	0.100
182.600	7.856	0.100
182.700	10.003	0.100
182.800	7.504	0.100
182.900	13.787	0.100
183.000	6.471	0.100
183.100	6.586	0.100
183.200	-5.429	0.100
183.300	10.715	0.100
183.400	11.406	0.100
183.500	18.900	0.100
183.600	3.635	0.100
183.700	8.973	0.100
183.800	-7.054	0.100
183.900	26.228	0.100
184.000	11.334	0.100
184.100	21.852	0.100
184.200	3.105	0.100
184.300	7.876	0.100
184.400	-3.359	0.100
184.500	15.070	0.100
184.600	7.964	0.100
184.700	0.076	0.100
184.800	0.334	0.100
184.900	7.401	0.100
185.000	14.882	0.100
185.100	8.971	0.100
185.200	14.889	0.100
185.300	7.642	0.100
185.400	2.014	0.100
185.500	-16.380	0.100
185.600	17.861	0.100
185.700	0.332	0.100
185.800	11.659	0.100
185.900	-12.741	0.100
186.000	4.724	0.100
186.100	7.813	0.100
186.200	17.595	0.100
186.300	4.441	0.100
186.400	-2.044	0.100
186.500	-0.335	0.100
186.600	12.990	0.100
186.700	13.076	0.100
186.800	17.220	0.100
186.900	-0.758	0.100
187.000	25.150	0.100
187.100	4.524	0.100
187.200	8.315	0.100
187.300	17.800	0.100
187.400	13.731	0.100
187.500	3.460	0.100
187.600	0.164	0.100
187.700	10.077	0.100
187.800	-2.713	0.100
187.900	1.581	0.100
188.000	17.132	0.100
188.100	4.384	0.100
188.200	14.712	0.100
188.300	9.245	0.100
188.400	10.105	0.100
188.500	10.420	0.100
188.600	22.878	0.100
188.700	26.114	0.100
188.800	26.314	0.100
188.900	4.155	0.100
189.000	17.032	0.100
189.100	29.765	0.100
189.200	26.569	0.100
189.300	4.089	0.100
189.400	23.207	0.100
189.500	19.121	0.100
189.600	12.501	0.100
189.700	23.776	0.100
189.800	13.859	0.100
189.900	12.490	0.100
190.000	22.273	0.100
190.100	27.825	0.100
190.200	-2.393	0.100
190.300	20.371	0.100
190.400	30.533	0.100
190.500	32.413	0.100
190.600	20.675	0.100
190.700	-1.202	0.100
190.800	21.737	0.100
190.900	20.371	0.100
191.000	15.844	0.100
191.100	6.535	0.100
191.200	4.103	0.100
191.300	34.658	0.100
191.400	11.046	0.100
191.500	44.831	0.100
191.600	33.184	0.100
191.700	13.225	0.100
191.800	30.459	0.100
191.900	27.523	0.100
192.000	16.111	0.100
192.100	20.624	0.100
192.200	35.599	0.100
192.300	35.929	0.100
192.400	18.466	0.100
192.500	16.001	0.100
192.600	25.503	0.100
192.700	26.016	0.100
192.800	18.383	0.100
192.900	26.187	0.100
193.000	22.696	0.100
193.100	22.916	0.100
193.200	31.795	0.100
193.300	36.979	0.100
193.400	31.208	0.100
193.500	32.388	0.100
193.600	36.147	0.100
193.700	17.871	0.100
193.800	3.775	0.100
193.900	3.564	0.100
194.000	39.949	0.100
194.100	24.493	0.100
194.200	25.813	0.100
194.300	33.625	0.100
194.400	29.475	0.100
194.500	17.807	0.100
194.600	22.017	0.100
194.700	37.203	0.100
194.800	31.758	0.100
194.900	45.394	0.100
195.000	13.091	0.100
195.100	37.412	0.100
195.200	33.386	0.100
195.300	28.808	0.100
195.400	34.863	0.100
195.500	25.087	0.100
195.600	12.437	0.100
195.700	41.736	0.100
195.800	31.254	0.100
195.900	2.550	0.100
196.000	26.465	0.100
196.100	35.742	0.100
196.200	41.670	0.100
196.300	39.837	0.100
196.400	28.472	0.100
196.500	22.086	0.100
196.600	16.335	0.100
196.700	14.605	0.100
196.800	46.443	0.100
196.900	24.803	0.100
197.000	28.589	0.100
197.100	23.795	0.100
197.200	35.088	0.100
197.300	39.920	0.100
197.400	30.470	0.100
197.500	31.607	0.100
197.600	26.854	0.100
197.700	26.816	0.100
197.800	26.534	0.100
197.900	20.515	0.100
198.000	17.568	0.100
198.100	30.839	0.100
198.200	13.013	0.100
198.300	25.916	0.100
198.400	28.929	0.100
198.500	27.315	0.100
198.600	39.364	0.100
198.700	17.907	0.100
198.800	21.975	0.100
198.900	31.203	0.100
199.000	33.580	0.100
199.100	31.217	0.100
199.200	28.888	0.100
199.300	25.933	0.100
199.400	6.546	0.100
199.500	30.423	0.100
199.600	38.580	0.100
199.700	16.640	0.100
199.800	42.034	0.100
199.900	29.554	0.100
200.000	30.540	0.100
200.100	26.182	0.100
200.200	17.727	0.100
200.300	39.863	0.100
200.400	28.616	0.100
200.500	37.456	0.100
200.600	18.593	0.100
200.700	14.805	0.100
200.800	21.587	0.100
200.900	23.498	0.100
201.000	24.366	0.100
201.100	24.453	0.100
201.200	47.713	0.100
201.300	28.381	0.100
201.400	45.107	0.100
201.500	35.171	0.100
201.600	33.371	0.100
201.700	37.342	0.100
201.800	28.689	0.100
201.900	33.926	0.100
202.000	10.775	0.100
202.100	33.948	0.100
202.200	33.743	0.100
202.300	26.420	0.100
202.400	23.235	0.100
202.500	25.097	0.100
202.600	31.341	0.100
202.700	40.826	0.100
202.800	32.562	0.100
202.900	40.270	0.100
203.000	25.960	0.100
203.100	31.778	0.100
203.200	8.631	0.100
203.300	36.814	0.100
203.400	36.371	0.100
203.500	27.679	0.100
203.600	27.285	0.100
203.700	29.752	0.100
203.800	42.233	0.100
203.900	31.082	0.100
204.000	34.765	0.100
204.100	23.332	0.100
204.200	27.087	0.100
204.300	34.247	0.100
204.400	30.803	0.100
204.500	39.000	0.100
204.600	34.715	0.100
204.700	28.869	0.100
204.800	24.812	0.100
204.900	25.181	0.100
205.000	12.252	0.100
205.100	9.978	0.100
205.200	40.946	0.100
205.300	37.273	0.100
205.400	30.183	0.100
205.500	39.369	0.100
205.600	25.890	0.100
205.700	32.116	0.100
205.800	27.585	0.100
205.900	44.172	0.100
206.000	27.159	0.100
206.100	27.044	0.100
206.200	25.420	0.100
206.300	36.006	0.100
206.400	49.252	0.100
206.500	36.632	0.100
206.600	20.961	0.100
206.700	33.775	0.100
206.800	26.008	0.100
206.900	31.282	0.100
207.000	27.213	0.100
207.100	35.924	0.100
207.200	44.239	0.100
207.300	20.583	0.100
207.400	49.719	0.100
207.500	30.289	0.100
207.600	19.662	0.100
207.700	33.256	0.100
207.800	29.809	0.100
207.900	26.859	0.100
208.000	28.795	0.100
208.100	40.708	0.100
208.200	41.008	0.100
208.300	21.726	0.100
208.400	33.235	0.100
208.500	14.938	0.100
208.600	27.530	0.100
208.700	49.561	0.100
208.800	39.891	0.100
208.900	27.733	0.100
209.000	25.218	0.100
209.100	30.900	0.100
209.200	30.169	0.100
209.300	32.796	0.100
209.400	33.120	0.100
209.500	27.055	0.100
209.600	25.905	0.100
209.700	26.217	0.100
209.800	16.111	0.100
209.900	24.923	0.100
210.000	15.571	0.100
210.100	42.825	0.100
210.200	27.990	0.100
210.300	25.317	0.100
210.400	24.456	0.100
210.500	34.749	0.100
210.600	37.849	0.100
210.700	35.463	0.100
210.800	31.876	0.100
210.900	25.521	0.100
211.000	32.949	0.100
211.100	21.742	0.100
211.200	17.556	0.100
211.300	35.493	0.100
211.400	29.606	0.100
211.500	23.617	0.100
211.600	23.946	0.100
211.700	22.997	0.100
211.800	24.934	0.100
211.900	51.722	0.100
212.000	38.213	0.100
212.100	26.038	0.100
212.200	27.622	0.100
212.300	12.303	0.100
212.400	36.497	0.100
212.500	41.205	0.100
212.600	33.892	0.100
212.700	31.410	0.100
212.800	36.129	0.100
212.900	20.004	0.100
213.000	33.597	0.100
213.100	19.681	0.100
213.200	29.025	0.100
213.300	21.386	0.100
213.400	38.118	0.100
213.500	47.461	0.100
213.600	26.502	0.100
213.700	26.250	0.100
213.800	24.994	0.100
213.900	27.759	0.100
214.000	35.972	0.100
214.100	33.595	0.100
214.200	34.181	0.100
214.300	31.154	0.100
214.400	34.173	0.100
214.500	34.736	0.100
214.600	31.386	0.100
214.700	22.885	0.100
214.800	37.190	0.100
214.900	34.124	0.100
215.000	29.143	0.100
215.100	42.852	0.100
215.200	27.208	0.100
215.300	35.742	0.100
215.400	36.836	0.100
215.500	13.803	0.100
215.600	33.496	0.100
215.700	35.480	0.100
215.800	47.562	0.100
215.900	20.813	0.100
216.000	31.459	0.100
216.100	35.282	0.100
216.200	28.112	0.100
216.300	41.603	0.100
216.400	49.315	0.100
216.500	35.656	0.100
216.600	31.242	0.100
216.700	45.257	0.100
216.800	15.334	0.100
216.900	22.859	0.100
217.000	33.085	0.100
217.100	36.370	0.100
217.200	38.327	0.100
217.300	29.217	0.100
217.400	42.437	0.100
217.500	29.717	0.100
217.600	26.629	0.100
217.700	28.027	0.100
217.800	27.047	0.100
217.900	30.426	0.100
218.000	37.105	0.100
218.100	16.451	0.100
218.200	34.697	0.100
218.300	51.622	0.100
218.400	25.614	0.100
218.500	43.222	0.100
218.600	21.999	0.100
218.700	31.961	0.100
218.800	47.703	0.100
218.900	38.274	0.100
219.000	16.150	0.100
219.100	35.374	0.100
219.200	34.289	0.100
219.300	37.772	0.100
219.400	31.016	0.100
219.500	35.498	0.100
219.600	22.256	0.100
219.700	39.934	0.100
219.800	28.349	0.100
219.900	47.779	0.100
220.000	30.271	0.100
220.100	32.669	0.100
220.200	25.609	0.100
220.300	30.763	0.100
220.400	36.618	0.100
220.500	41.110	0.100
220.600	32.568	0.100
220.700	20.934	0.100
220.800	26.906	0.100
220.900	52.393	0.100
221.000	27.989	0.100
221.100	26.674	0.100
221.200	33.018	0.100
221.300	36.839	0.100
221.400	26.704	0.100
221.500	33.861	0.100
221.600	22.020	0.100
221.700	41.992	0.100
221.800	32.296	0.100
221.900	23.515	0.100
222.000	37.915	0.100
222.100	32.672	0.100
222.200	28.889	0.100
222.300	41.803	0.100
222.400	28.983	0.100
222.500	37.882	0.100
222.600	35.126	0.100
222.700	39.216	0.100
222.800	10.548	0.100
222.900	17.178	0.100
223.000	46.186	0.100
223.100	23.764	0.100
223.200	29.950	0.100
223.300	34.160	0.100
223.400	19.963	0.100
223.500	35.528	0.100
223.600	26.461	0.100
223.700	35.358	0.100
223.800	15.333	0.100
223.900	13.679	0.100
224.000	31.749	0.100
224.100	60.134	0.100
224.200	35.566	0.100
224.300	26.233	0.100
224.400	43.444	0.100
224.500	19.141	0.100
224.600	44.263	0.100
224.700	50.324	0.100
224.800	26.406	0.100
224.900	24.491	0.100
225.000	35.211	0.100
225.100	36.284	0.100
225.200	23.629	0.100
225.300	22.703	0.100
225.400	32.311	0.100
225.500	40.399	0.100
225.600	14.674	0.100
225.700	45.604	0.100
225.800	40.190	0.100
225.900	34.849	0.100
226.000	30.979	0.100
226.100	44.898	0.100
226.200	32.775	0.100
226.300	11.922	0.100
226.400	27.217	0.100
226.500	34.537	0.100
226.600	30.863	0.100
226.700	20.998	0.100
226.800	45.883	0.100
226.900	36.810	0.100
227.000	31.054	0.100
227.100	26.084	0.100
227.200	38.478	0.100
227.300	27.053	0.100
227.400	19.107	0.100
227.500	46.232	0.100
227.600	27.942	0.100
227.700	30.832	0.100
227.800	40.569	0.100
227.900	23.524	0.100
228.000	29.933	0.100
228.100	53.680	0.100
228.200	25.543	0.100
228.300	42.767	0.100
228.400	28.413	0.100
228.500	20.275	0.100
228.600	26.812	0.100
228.700	35.326	0.100
228.800	40.421	0.100
228.900	33.086	0.100
229.000	40.612	0.100
229.100	32.395	0.100
229.200	28.313	0.100
229.300	25.946	0.100
229.400	35.508	0.100
229.500	28.288	0.100
229.600	36.206	0.100
229.700	38.181	0.100
229.800	24.918	0.100
229.900	40.310	0.100
230.000	34.552	0.100
230.100	53.628	0.100
230.200	37.856	0.100
230.300	43.441	0.100
230.400	22.560	0.100
230.500	29.545	0.100
230.600	38.577	0.100
230.700	21.657	0.100
230.800	25.361	0.100
230.900	44.307	0.100
231.000	28.628	0.100
231.100	33.093	0.100
231.200	24.931	0.100
231.300	43.191	0.100
231.400	48.463	0.100
231.500	24.003	0.100
231.600	57.074	0.100
231.700	20.120	0.100
231.800	32.170	0.100
231.900	27.571	0.100
232.000	54.159	0.100
232.100	20.591	0.100
232.200	40.020	0.100
232.300	24.962	0.100
232.400	50.595	0.100
232.500	36.533	0.100
232.600	27.911	0.100
232.700	28.138	0.100
232.800	41.285	0.100
232.900	43.532	0.100
233.000	19.263	0.100
233.100	55.504	0.100
233.200	44.127	0.100
233.300	34.660	0.100
233.400	25.220	0.100
233.500	30.125	0.100
233.600	41.840	0.100
233.700	24.753	0.100
233.800	44.824	0.100
233.900	38.738	0.100
234.000	23.558	0.100
234.100	40.956	0.100
234.200	32.566	0.100
234.300	33.223	0.100
234.400	47.347	0.100
234.500	21.699	0.100
234.600	23.661	0.100
234.700	46.004	0.100
234.800	29.939	0.100
234.900	25.353	0.100
235.000	37.758	0.100
235.100	50.174	0.100
235.200	18.704	0.100
235.300	20.705	0.100
235.400	51.831	0.100
235.500	53.225	0.100
235.600	19.990	0.100
235.700	39.017	0.100
235.800	22.094	0.100
235.900	29.600	0.100
236.000	33.986	0.100
236.100	34.094	0.100
236.200	18.962	0.100
236.300	43.084	0.100
236.400	29.115	0.100
236.500	29.523	0.100
236.600	44.506	0.100
236.700	19.663	0.100
236.800	31.022	0.100
236.900	31.744	0.100
237.000	31.839	0.100
237.100	45.831	0.100
237.200	25.172	0.100
237.300	44.330	0.100
237.400	37.288	0.100
237.500	19.499	0.100
237.600	34.341	0.100
237.700	27.826	0.100
237.800	46.166	0.100
237.900	41.139	0.100
238.000	36.695	0.100
238.100	39.875	0.100
238.200	28.628	0.100
238.300	36.632	0.100
238.400	23.239	0.100
238.500	41.796	0.100
238.600	50.430	0.100
238.700	26.592	0.100
238.800	43.687	0.100
238.900	24.316	0.100
239.000	49.142	0.100
239.100	15.931	0.100
239.200	38.232	0.100
239.300	14.510	0.100
239.400	30.971	0.100
239.500	48.947	0.100
239.600	36.707	0.100
239.700	35.581	0.100
239.800	51.264	0.100
239.900	22.067	0.100
240.000	37.079	0.100
240.100	42.517	0.100
240.200	33.695	0.100
240.300	46.302	0.100
240.400	44.986	0.100
240.500	47.221	0.100
240.600	39.836	0.100
240.700	26.284	0.100
240.800	11.485	0.100
240.900	32.337	0.100
241.000	41.512	0.100
241.100	39.417	0.100
241.200	25.032	0.100
241.300	20.657	0.100
241.400	11.151	0.100
241.500	21.058	0.100
241.600	25.264	0.100
241.700	29.149	0.100
241.800	20.029	0.100
241.900	4.528	0.100
242.000	12.636	0.100
242.100	17.611	0.100
242.200	3.111	0.100
242.300	14.558	0.100
242.400	22.699	0.100
242.500	11.965	0.100
242.600	11.434	0.100
242.700	3.992	0.100
242.800	11.877	0.100
242.900	5.675	0.100
243.000	-6.799	0.100
243.100	12.104	0.100
243.200	20.208	0.100
243.300	8.397	0.100
243.400	15.683	0.100
243.500	-4.395	0.100
243.600	6.441	0.100
243.700	-11.761	0.100
243.800	10.410	0.100
243.900	7.699	0.100
244.000	-1.399	0.100
244.100	4.749	0.100
244.200	4.518	0.100
244.300	-1.399	0.100
244.400	-1.965	0.100
244.500	-4.747	0.100
244.600	-6.283	0.100
244.700	6.803	0.100
244.800	5.969	0.100
244.900	-16.014	0.100
245.000	7.501	0.100
245.100	10.498	0.100
245.200	-5.634	0.100
245.300	6.481	0.100
245.400	-16.545	0.100
245.500	10.987	0.100
245.600	-7.586	0.100
245.700	-9.483	0.100
245.800	-3.221	0.100
245.900	-5.061	0.100
246.000	-1.487	0.100
246.100	-6.423	0.100
246.200	-5.313	0.100
246.300	4.221	0.100
246.400	12.480	0.100
246.500	2.347	0.100
246.600	18.050	0.100
246.700	4.327	0.100
246.800	-3.445	0.100
246.900	0.150	0.100
247.000	9.038	0.100
247.100	-5.226	0.100
247.200	-1.291	0.100
247.300	-5.591	0.100
247.400	16.622	0.100
247.500	1.979	0.100
247.600	0.461	0.100
247.700	0.621	0.100
247.800	-6.686	0.100
247.900	10.918	0.100
248.000	3.385	0.100
248.100	0.714	0.100
248.200	2.243	0.100
248.300	-23.738	0.100
248.400	-3.417	0.100
248.500	-17.281	0.100
248.600	4.399	0.100
248.700	9.515	0.100
248.800	-1.642	0.100
248.900	3.957	0.100
249.000	-7.816	0.100
249.100	5.447	0.100
249.200	4.341	0.100
249.300	9.408	0.100
249.400	-9.408	0.100
249.500	-7.516	0.100
249.600	7.888	0.100
249.700	-11.854	0.100
249.800	-18.274	0.100
249.900	-1.388	0.100
250.000	-7.117	0.100
250.100	11.741	0.100
250.200	9.897	0.100
250.300	9.204	0.100
250.400	-2.175	0.100
250.500	-1.381	0.100
250.600	1.186	0.100
250.700	-10.973	0.100
250.800	6.075	0.100
250.900	-24.341	0.100
251.000	20.022	0.100
251.100	4.374	0.100
251.200	-2.013	0.100
251.300	-11.010	0.100
251.400	-5.075	0.100
251.500	0.058	0.100
251.600	-4.521	0.100
251.700	18.631	0.100
251.800	-0.389	0.100
251.900	-17.164	0.100
252.000	-10.731	0.100
252.100	0.826	0.100
252.200	-4.448	0.100
252.300	4.048	0.100
252.400	-9.788	0.100
252.500	-3.040	0.100
252.600	-10.091	0.100
252.700	-2.658	0.100
252.800	-4.078	0.100
252.900	0.501	0.100
253.000	4.435	0.100
253.100	1.269	0.100
253.200	-2.743	0.100
253.300	-6.086	0.100
253.400	-3.695	0.100
253.500	-8.924	0.100
253.600	-20.971	0.100
253.700	25.993	0.100
253.800	-15.903	0.100
253.900	8.663	0.100
254.000	-10.359	0.100
254.100	18.160	0.100
254.200	-11.075	0.100
254.300	-1.340	0.100
254.400	-3.178	0.100
254.500	3.236	0.100
254.600	-3.880	0.100
254.700	-10.570	0.100
254.800	-6.026	0.100
254.900	2.302	0.100
255.000	-14.848	0.100
255.100	11.372	0.100
255.200	5.213	0.100
255.300	-7.386	0.100
255.400	-28.651	0.100
255.500	2.709	0.100
255.600	-9.560	0.100
255.700	13.508	0.100
255.800	1.599	0.100
255.900	-6.950	0.100
256.000	-25.877	0.100
256.100	-9.402	0.100
256.200	-26.930	0.100
256.300	2.205	0.100
256.400	-3.535	0.100
256.500	-2.909	0.100
256.600	-7.413	0.100
256.700	-3.332	0.100
256.800	-8.141	0.100
256.900	16.361	0.100
257.000	-7.528	0.100
257.100	-27.596	0.100
257.200	-2.422	0.100
257.300	-4.711	0.100
257.400	4.247	0.100
257.500	-1.279	0.100
257.600	-10.852	0.100
257.700	-0.377	0.100
257.800	-8.274	0.100
257.900	-5.863	0.100
258.000	-8.725	0.100
258.100	-9.651	0.100
258.200	-14.080	0.100
258.300	3.814	0.100
258.400	-29.989	0.100
258.500	-4.820	0.100
258.600	2.561	0.100
258.700	-4.688	0.100
258.800	8.249	0.100
258.900	-15.305	0.100
259.000	-10.242	0.100
259.100	-1.227	0.100
259.200	-14.777	0.100
259.300	1.887	0.100
259.400	-14.134	0.100
259.500	-27.400	0.100
259.600	12.170	0.100
259.700	-4.848	0.100
259.800	2.504	0.100
259.900	-1.214	0.100
260.000	-27.180	0.100
260.100	-8.026	0.100
260.200	3.462	0.100
260.300	-14.054	0.100
260.400	3.977	0.100
260.500	-19.806	0.100
260.600	-14.698	0.100
260.700	-16.055	0.100
260.800	-2.014	0.100
260.900	-23.161	0.100
261.000	-14.252	0.100
261.100	13.916	0.100
261.200	-20.610	0.100
261.300	-17.314	0.100
261.400	-24.666	0.100
261.500	0.333	0.100
261.600	-17.481	0.100
261.700	-3.301	0.100
261.800	-15.170	0.100
261.900	-3.972	0.100
262.000	9.338	0.100
262.100	-5.429	0.100
262.200	-4.559	0.100
262.300	-14.772	0.100
262.400	9.389	0.100
262.500	-6.089	0.100
262.600	-3.977	0.100
262.700	-8.527	0.100
262.800	-20.130	0.100
262.900	-2.601	0.100
263.000	-4.365	0.100
263.100	-7.316	0.100
263.200	-19.536	0.100
263.300	-2.543	0.100
263.400	-7.478	0.100
263.500	-14.066	0.100
263.600	-21.152	0.100
263.700	-2.938	0.100
263.800	-15.094	0.100
263.900	-11.497	0.100
264.000	8.504	0.100
264.100	-17.579	0.100
264.200	-13.762	0.100
264.300	-9.478	0.100
264.400	-27.769	0.100
264.500	-16.126	0.100
264.600	12.996	0.100
264.700	-22.022	0.100
264.800	-7.465	0.100
264.900	-26.961	0.100
265.000	-8.410	0.100
265.100	-15.659	0.100
265.200	-1.487	0.100
265.300	2.523	0.100
265.400	-2.281	0.100
265.500	-9.367	0.100
265.600	-26.801	0.100
265.700	-23.721	0.100
265.800	-6.874	0.100
265.900	0.200	0.100
266.000	-2.339	0.100
266.100	4.263	0.100
266.200	-5.153	0.100
266.300	-8.257	0.100
266.400	-36.968	0.100
266.500	-7.544	0.100
266.600	-12.765	0.100
266.700	-11.657	0.100
266.800	-19.839	0.100
266.900	-11.017	0.100
267.000	-21.896	0.100
267.100	-15.361	0.100
267.200	0.348	0.100
267.300	-7.743	0.100
267.400	-19.632	0.100
267.500	-0.684	0.100
267.600	-19.377	0.100
267.700	-12.711	0.100
267.800	-14.199	0.100
267.900	-20.258	0.100
268.000	-16.567	0.100
268.100	-10.139	0.100
268.200	-15.491	0.100
268.300	-4.255	0.100
268.400	-15.973	0.100
268.500	-17.802	0.100
268.600	-21.873	0.100
268.700	-13.020	0.100
268.800	-3.956	0.100
268.900	3.927	0.100
269.000	-32.827	0.100
269.100	2.934	0.100
269.200	-7.729	0.100
269.300	-10.185	0.100
269.400	-7.874	0.100
269.500	-23.894	0.100
269.600	-11.910	0.100
269.700	-38.152	0.100
269.800	8.807	0.100
269.900	-9.488	0.100
270.000	-17.605	0.100
270.100	-6.595	0.100
270.200	-13.392	0.100
270.300	-19.468	0.100
270.400	-25.549	0.100
270.500	-16.904	0.100
270.600	-11.993	0.100
270.700	-24.885	0.100
270.800	-24.268	0.100
270.900	-14.812	0.100
271.000	-7.708	0.100
271.100	-16.217	0.100
271.200	-7.125	0.100
271.300	-15.330	0.100
271.400	-22.357	0.100
271.500	-17.390	0.100
271.600	-16.072	0.100
271.700	-17.304	0.100
271.800	-4.838	0.100
271.900	-14.491	0.100
272.000	-2.696	0.100
272.100	-18.438	0.100
272.200	-17.948	0.100
272.300	-6.410	0.100
272.400	-4.684	0.100
272.500	-19.780	0.100
272.600	-16.648	0.100
272.700	-16.482	0.100
272.800	-25.776	0.100
272.900	9.285	0.100
273.000	-11.906	0.100
273.100	-22.150	0.100
273.200	-8.367	0.100
273.300	-24.328	0.100
273.400	-14.513	0.100
273.500	-18.052	0.100
273.600	-41.121	0.100
273.700	-13.092	0.100
273.800	-18.668	0.100
273.900	-10.685	0.100
274.000	-21.421	0.100
274.100	-15.365	0.100
274.200	-19.939	0.100
274.300	-21.214	0.100
274.400	-13.946	0.100
274.500	3.261	0.100
274.600	-16.510	0.100
274.700	-10.467	0.100
274.800	-5.277	0.100
274.900	-13.077	0.100
275.000	-19.990	0.100
275.100	-22.798	0.100
275.200	-25.527	0.100
275.300	-20.301	0.100
275.400	6.191	0.100
275.500	-14.400	0.100
275.600	-5.126	0.100
275.700	-13.277	0.100
275.800	-13.818	0.100
275.900	-26.841	0.100
276.000	-15.040	0.100
276.100	-37.027	0.100
276.200	-1.803	0.100
276.300	-20.458	0.100
276.400	-37.321	0.100
276.500	4.196	0.100
276.600	-14.022	0.100
276.700	-21.489	0.100
276.800	-4.747	0.100
276.900	1.492	0.100
277.000	-31.519	0.100
277.100	-17.980	0.100
277.200	-13.829	0.100
277.300	-9.121	0.100
277.400	-11.512	0.100
277.500	-32.238	0.100
277.600	-6.053	0.100
277.700	-21.447	0.100
277.800	-20.929	0.100
277.900	-17.565	0.100
278.000	2.018	0.100
278.100	-14.232	0.100
278.200	-11.416	0.100
278.300	-13.970	0.100
278.400	-18.047	0.100
278.500	-8.013	0.100
278.600	-8.053	0.100
278.700	-17.467	0.100
278.800	-40.576	0.100
278.900	3.048	0.100
279.000	-3.780	0.100
279.100	-12.581	0.100
279.200	-23.458	0.100
279.300	-15.217	0.100
279.400	-1.146	0.100
279.500	-15.899	0.100
279.600	-14.697	0.100
279.700	-8.712	0.100
279.800	-15.461	0.100
279.900	-9.474	0.100
280.000	-16.280	0.100
280.100	-6.799	0.100
280.200	-8.516	0.100
280.300	-25.569	0.100
280.400	-17.559	0.100
280.500	-14.692	0.100
280.600	-28.474	0.100
280.700	2.333	0.100
280.800	-9.821	0.100
280.900	6.988	0.100
281.000	-16.861	0.100
281.100	-18.802	0.100
281.200	-20.348	0.100
281.300	-3.582	0.100
281.400	-22.773	0.100
281.500	-11.694	0.100
281.600	-30.028	0.100
281.700	-23.220	0.100
281.800	-20.052	0.100
281.900	-22.653	0.100
282.000	-22.147	0.100
282.100	-14.761	0.100
282.200	-8.702	0.100
282.300	-18.524	0.100
282.400	-29.417	0.100
282.500	-5.760	0.100
282.600	-17.573	0.100
282.700	-25.000	0.100
282.800	-29.465	0.100
282.900	17.082	0.100
283.000	0.369	0.100
283.100	-9.817	0.100
283.200	-17.604	0.100
283.300	-11.441	0.100
283.400	-22.750	0.100
283.500	-16.766	0.100
283.600	-17.985	0.100
283.700	-13.211	0.100
283.800	-21.644	0.100
283.900	-21.756	0.100
284.000	-25.858	0.100
284.100	-12.492	0.100
284.200	-18.051	0.100
284.300	-19.904	0.100
284.400	-19.279	0.100
284.500	-17.661	0.100
284.600	-18.436	0.100
284.700	0.585	0.100
284.800	-12.624	0.100
284.900	-30.853	0.100
285.000	-27.053	0.100
285.100	-23.627	0.100
285.200	-3.187	0.100
285.300	-19.930	0.100
285.400	-6.642	0.100
285.500	-23.110	0.100
285.600	-14.693	0.100
285.700	-14.729	0.100
285.800	-12.954	0.100
285.900	-9.973	0.100
286.000	-7.382	0.100
286.100	-13.871	0.100
286.200	-28.244	0.100
286.300	-18.302	0.100
286.400	-12.595	0.100
286.500	-19.470	0.100
286.600	-15.403	0.100
286.700	-16.352	0.100
286.800	-6.384	0.100
286.900	-21.995	0.100
287.000	-7.172	0.100
287.100	-20.002	0.100
287.200	-6.538	0.100
287.300	-24.501	0.100
287.400	-5.639	0.100
287.500	-1.894	0.100
287.600	-2.207	0.100
287.700	-9.962	0.100
287.800	-26.338	0.100
287.900	-8.824	0.100
288.000	-7.199	0.100
288.100	-10.954	0.100
288.200	-10.911	0.100
288.300	-9.857	0.100
288.400	-8.681	0.100
288.500	-22.364	0.100
288.600	-11.752	0.100
288.700	-13.853	0.100
288.800	-29.268	0.100
288.900	-7.400	0.100
289.000	-18.154	0.100
289.100	-27.132	0.100
289.200	-9.881	0.100
289.300	-17.137	0.100
289.400	-1.451	0.100
289.500	-33.352	0.100
289.600	-17.760	0.100
289.700	-0.017	0.100
289.800	-2.159	0.100
289.900	-11.265	0.100
290.000	-14.687	0.100
290.100	-15.639	0.100
290.200	-25.952	0.100
290.300	-22.437	0.100
290.400	-22.581	0.100
290.500	-28.004	0.100
290.600	-30.511	0.100
290.700	1.236	0.100
290.800	0.161	0.100
290.900	-15.773	0.100
291.000	-15.058	0.100
291.100	-21.965	0.100
291.200	-14.627	0.100
291.300	-29.902	0.100
291.400	-19.448	0.100
291.500	-32.080	0.100
291.600	-22.961	0.100
291.700	-12.256	0.100
291.800	-22.779	0.100
291.900	-14.582	0.100
292.000	-6.092	0.100
292.100	-16.376	0.100
292.200	-12.807	0.100
292.300	-10.788	0.100
292.400	-20.798	0.100
292.500	0.831	0.100
292.600	-15.905	0.100
292.700	-22.303	0.100
292.800	-16.076	0.100
292.900	-14.568	0.100
293.000	-17.903	0.100
293.100	-15.430	0.100
293.200	-14.309	0.100
293.300	-4.323	0.100
293.400	-15.198	0.100
293.500	-25.337	0.100
293.600	-6.530	0.100
293.700	-31.098	0.100
293.800	-19.424	0.100
293.900	0.209	0.100
294.000	-40.415	0.100
294.100	-13.448	0.100
294.200	6.502	0.100
294.300	-15.340	0.100
294.400	-26.892	0.100
294.500	-27.269	0.100
294.600	4.287	0.100
294.700	-17.182	0.100
294.800	-25.312	0.100
294.900	-21.859	0.100
295.000	-6.696	0.100
295.100	-13.377	0.100
295.200	-24.059	0.100
295.300	-23.601	0.100
295.400	-3.917	0.100
295.500	-19.634	0.100
295.600	-19.036	0.100
295.700	-17.960	0.100
295.800	0.903	0.100
295.900	-7.784	0.100
296.000	-3.013	0.100
296.100	-2.513	0.100
296.200	-5.455	0.100
296.300	-12.718	0.100
296.400	-11.903	0.100
296.500	-11.726	0.100
296.600	-7.667	0.100
296.700	-14.869	0.100
296.800	-26.775	0.100
296.900	-14.808	0.100
297.000	-2.813	0.100
297.100	-15.113	0.100
297.200	-23.757	0.100
297.300	0.544	0.100
297.400	-19.952	0.100
297.500	-18.292	0.100
297.600	-13.760	0.100
297.700	-7.614	0.100
297.800	-8.729	0.100
297.900	-16.244	0.100
298.000	-29.306	0.100
298.100	-19.986	0.100
298.200	-0.001	0.100
298.300	-12.627	0.100
298.400	-16.490	0.100
298.500	-19.645	0.100
298.600	-10.587	0.100
298.700	-13.075	0.100
298.800	-10.620	0.100
298.900	-9.274	0.100
299.000	-21.820	0.100
299.100	-25.693	0.100
299.200	-15.245	0.100
299.300	-19.053	0.100
299.400	-10.444	0.100
299.500	-8.997	0.100
299.600	-9.196	0.100
299.700	-11.450	0.100
299.800	-23.528	0.100
299.900	-22.937	0.100
300.000	-7.699	0.100
300.100	-9.655	0.100
300.200	-2.938	0.100
300.300	-16.814	0.100
300.400	-5.102	0.100
300.500	-26.846	0.100
300.600	-8.125	0.100
300.700	-17.693	0.100
300.800	-39.850	0.100
300.900	9.814	0.100
301.000	-7.286	0.100
301.100	-22.579	0.100
301.200	-12.834	0.100
301.300	-18.714	0.100
301.400	-7.748	0.100
301.500	-15.985	0.100
301.600	-4.497	0.100
301.700	-15.299	0.100
301.800	1.636	0.100
301.900	-17.574	0.100
302.000	-20.067	0.100
302.100	-13.142	0.100
302.200	-22.594	0.100
302.300	-30.525	0.100
302.400	-11.660	0.100
302.500	-4.594	0.100
302.600	-19.337	0.100
302.700	-9.995	0.100
302.800	-4.461	0.100
302.900	-18.556	0.100
303.000	-38.354	0.100
303.100	-4.174	0.100
303.200	-18.930	0.100
303.300	-30.740	0.100
303.400	10.443	0.100
303.500	-4.742	0.100
303.600	-19.559	0.100
303.700	-14.586	0.100
303.800	-14.020	0.100
303.900	-27.388	0.100
304.000	-14.013	0.100
304.100	-14.750	0.100
304.200	-12.598	0.100
304.300	-12.041	0.100
304.400	-23.771	0.100
304.500	-10.669	0.100
304.600	-13.115	0.100
304.700	-4.915	0.100
304.800	-19.162	0.100
304.900	-24.585	0.100
305.000	-12.567	0.100
305.100	-7.842	0.100
305.200	-5.909	0.100
305.300	-21.305	0.100
305.400	-17.498	0.100
305.500	-13.875	0.100
305.600	-12.358	0.100
305.700	-28.180	0.100
305.800	-8.781	0.100
305.900	-14.456	0.100
306.000	-16.705	0.100
306.100	-40.401	0.100
306.200	-24.071	0.100
306.300	-34.859	0.100
306.400	-10.993	0.100
306.500	-22.775	0.100
306.600	-8.729	0.100
306.700	-21.230	0.100
306.800	-21.207	0.100
306.900	-4.059	0.100
307.000	-16.482	0.100
307.100	-5.092	0.100
307.200	-17.943	0.100
307.300	-8.889	0.100
307.400	-10.104	0.100
307.500	-32.192	0.100
307.600	-0.091	0.100
307.700	-19.431	0.100
307.800	-2.123	0.100
307.900	-28.716	0.100
308.000	-12.998	0.100
308.100	-15.454	0.100
308.200	-13.976	0.100
308.300	-15.085	0.100
308.400	-11.341	0.100
308.500	-23.758	0.100
308.600	-9.571	0.100
308.700	-7.826	0.100
308.800	-22.781	0.100
308.900	-9.402	0.100
309.000	-28.683	0.100
309.100	-23.215	0.100
309.200	-21.643	0.100
309.300	-19.093	0.100
309.400	-4.641	0.100
309.500	-14.699	0.100
309.600	-8.292	0.100
309.700	-27.830	0.100
309.800	-20.142	0.100
309.900	-21.660	0.100
310.000	-16.845	0.100
310.100	-26.782	0.100
310.200	2.278	0.100
310.300	-23.142	0.100
310.400	10.182	0.100
310.500	-17.182	0.100
310.600	-15.752	0.100
310.700	-7.087	0.100
310.800	-23.125	0.100
310.900	-20.572	0.100
311.000	-11.236	0.100
311.100	-4.915	0.100
311.200	-22.330	0.100
311.300	-36.930	0.100
311.400	-23.010	0.100
311.500	13.612	0.100
311.600	-15.543	0.100
311.700	-2.202	0.100
311.800	-8.387	0.100
311.900	-10.632	0.100
312.000	-17.018	0.100
312.100	-21.155	0.100
312.200	-13.271	0.100
312.300	-17.399	0.100
312.400	-24.939	0.100
312.500	-3.945	0.100
312.600	-18.918	0.100
312.700	-16.330	0.100
312.800	-32.863	0.100
312.900	1.475	0.100
313.000	-20.167	0.100
313.100	-19.830	0.100
313.200	-29.322	0.100
313.300	-28.641	0.100
313.400	-19.288	0.100
313.500	-5.818	0.100
313.600	-21.711	0.100
313.700	-9.763	0.100
313.800	-22.856	0.100
313.900	-15.608	0.100
314.000	-20.896	0.100
314.100	-3.295	0.100
314.200	-5.158	0.100
314.300	-9.048	0.100
314.400	-17.013	0.100
314.500	-2.561	0.100
314.600	-34.539	0.100
314.700	20.314	0.100
314.800	-8.532	0.100
314.900	-24.499	0.100
315.000	-2.196	0.100
315.100	-22.132	0.100
315.200	-20.425	0.100
315.300	-1.008	0.100
315.400	-21.433	0.100
315.500	-30.475	0.100
315.600	-28.616	0.100
315.700	-26.181	0.100
315.800	5.397	0.100
315.900	1.209	0.100
316.000	-3.953	0.100
316.100	-25.351	0.100
316.200	-0.100	0.100
316.300	-9.708	0.100
316.400	-4.841	0.100
316.500	-17.845	0.100
316.600	-16.028	0.100
316.700	-19.530	0.100
316.800	-7.449	0.100
316.900	-25.962	0.100
317.000	-35.677	0.100
317.100	6.421	0.100
317.200	-23.441	0.100
317.300	-8.430	0.100
317.400	-8.405	0.100
317.500	-8.963	0.100
317.600	-13.586	0.100
317.700	-16.169	0.100
317.800	-22.328	0.100
317.900	-19.521	0.100
318.000	-6.667	0.100
318.100	-11.174	0.100
318.200	-5.245	0.100
318.300	-25.805	0.100
318.400	-7.413	0.100
318.500	-29.287	0.100
318.600	-9.311	0.100
318.700	-19.201	0.100
318.800	-26.476	0.100
318.900	-18.270	0.100
319.000	-3.146	0.100
319.100	-14.376	0.100
319.200	2.218	0.100
319.300	-25.761	0.100
319.400	-5.015	0.100
319.500	-13.496	0.100
319.600	-6.806	0.100
319.700	-29.177	0.100
319.800	-20.871	0.100
319.900	-23.696	0.100
320.000	-5.656	0.100
320.100	-24.836	0.100
320.200	4.588	0.100
320.300	-14.309	0.100
320.400	-21.522	0.100
320.500	-1.462	0.100
320.600	-19.862	0.100
320.700	-24.448	0.100
320.800	-12.163	0.100
320.900	-3.685	0.100
321.000	-16.185	0.100
321.100	-8.252	0.100
321.200	-18.677	0.100
321.300	-12.683	0.100
321.400	-9.335	0.100
321.500	-16.459	0.100
321.600	-6.715	0.100
321.700	-18.085	0.100
321.800	-12.349	0.100
321.900	-2.217	0.100
322.000	-13.672	0.100
322.100	0.829	0.100
322.200	-17.716	0.100
322.300	-17.848	0.100
322.400	-29.227	0.100
322.500	-11.672	0.100
322.600	-18.468	0.100
322.700	-4.085	0.100
322.800	-15.832	0.100
322.900	-20.989	0.100
323.000	-23.980	0.100
323.100	-23.467	0.100
323.200	-27.757	0.100
323.300	3.578	0.100
323.400	-18.493	0.100
323.500	-8.097	0.100
323.600	-7.664	0.100
323.700	-27.604	0.100
323.800	-12.704	0.100
323.900	-11.617	0.100
324.000	-13.958	0.100
324.100	12.423	0.100
324.200	-23.620	0.100
324.300	-14.807	0.100
324.400	-15.847	0.100
324.500	-14.391	0.100
324.600	-35.542	0.100
324.700	-4.468	0.100
324.800	-22.346	0.100
324.900	0.376	0.100
325.000	-23.214	0.100
325.100	-21.202	0.100
325.200	-21.508	0.100
325.300	-14.473	0.100
325.400	-3.105	0.100
325.500	-23.503	0.100
325.600	-25.289	0.100
325.700	-17.324	0.100
325.800	0.220	0.100
325.900	-8.833	0.100
326.000	-14.405	0.100
326.100	-32.986	0.100
326.200	-7.189	0.100
326.300	-11.509	0.100
326.400	-14.427	0.100
326.500	-22.618	0.100
326.600	-12.897	0.100
326.700	-23.552	0.100
326.800	-10.497	0.100
326.900	-12.464	0.100
327.000	-12.128	0.100
327.100	5.391	0.100
327.200	-13.301	0.100
327.300	-28.867	0.100
327.400	-12.175	0.100
327.500	-10.250	0.100
327.600	-13.107	0.100
327.700	-13.876	0.100
327.800	-8.608	0.100
327.900	-11.859	0.100
328.000	-16.094	0.100
328.100	-10.566	0.100
328.200	-9.650	0.100
328.300	-18.205	0.100
328.400	-16.746	0.100
328.500	-8.794	0.100
328.600	-28.485	0.100
328.700	-20.607	0.100
328.800	-24.291	0.100
328.900	-14.181	0.100
329.000	-26.965	0.100
329.100	-23.671	0.100
329.200	-34.743	0.100
329.300	-3.270	0.100
329.400	-5.238	0.100
329.500	-19.198	0.100
329.600	-12.196	0.100
329.700	-21.154	0.100
329.800	-13.198	0.100
329.900	-6.934	0.100
330.000	-13.512	0.100
330.100	-13.039	0.100
330.200	-7.302	0.100
330.300	-16.493	0.100
330.400	-21.707	0.100
330.500	-13.225	0.100
330.600	-14.030	0.100
330.700	0.761	0.100
330.800	-5.564	0.100
330.900	6.427	0.100
331.000	-7.740	0.100
331.100	-4.186	0.100
331.200	-8.987	0.100
331.300	-0.980	0.100
331.400	15.962	0.100
331.500	13.288	0.100
331.600	10.015	0.100
331.700	-1.633	0.100
331.800	10.330	0.100
331.900	15.535	0.100
332.000	7.821	0.100
332.100	21.280	0.100
332.200	3.641	0.100
332.300	13.818	0.100
332.400	17.411	0.100
332.500	21.634	0.100
332.600	16.423	0.100
332.700	10.082	0.100
332.800	2.043	0.100
332.900	-5.632	0.100
333.000	14.189	0.100
333.100	14.042	0.100
333.200	-5.592	0.100
333.300	10.044	0.100
333.400	27.067	0.100
333.500	-0.072	0.100
333.600	13.504	0.100
333.700	2.408	0.100
333.800	17.392	0.100
333.900	6.884	0.100
334.000	19.873	0.100
334.100	-0.084	0.100
334.200	11.213	0.100
334.300	12.987	0.100
334.400	-2.183	0.100
334.500	11.191	0.100
334.600	7.140	0.100
334.700	9.754	0.100
334.800	8.383	0.100
334.900	0.639	0.100
335.000	20.068	0.100
335.100	5.916	0.100
335.200	6.201	0.100
335.300	-4.773	0.100
335.400	3.278	0.100
335.500	9.083	0.100
335.600	-5.952	0.100
335.700	3.835	0.100
335.800	2.382	0.100
335.900	-2.428	0.100
336.000	6.567	0.100
336.100	14.599	0.100
336.200	4.912	0.100
336.300	-3.583	0.100
336.400	0.776	0.100
336.500	9.029	0.100
336.600	0.225	0.100
336.700	7.145	0.100
336.800	26.044	0.100
336.900	7.631	0.100
337.000	-2.814	0.100
337.100	13.454	0.100
337.200	-7.254	0.100
337.300	14.978	0.100
337.400	19.663	0.100
337.500	15.117	0.100
337.600	13.153	0.100
337.700	-18.174	0.100
337.800	8.428	0.100
337.900	10.944	0.100
338.000	9.214	0.100
338.100	11.522	0.100
338.200	3.233	0.100
338.300	11.916	0.100
338.400	10.222	0.100
338.500	3.547	0.100
338.600	26.719	0.100
338.700	26.420	0.100
338.800	0.491	0.100
338.900	3.746	0.100
339.000	19.102	0.100
339.100	17.361	0.100
339.200	1.044	0.100
339.300	13.674	0.100
339.400	10.414	0.100
339.500	4.503	0.100
339.600	24.635	0.100
339.700	10.888	0.100
339.800	15.842	0.100
339.900	16.291	0.100
340.000	16.653	0.100
340.100	6.104	0.100
340.200	18.645	0.100
340.300	26.086	0.100
340.400	18.766	0.100
340.500	2.664	0.100
340.600	18.102	0.100
340.700	6.794	0.100
340.800	12.172	0.100
340.900	23.030	0.100
341.000	25.877	0.100
341.100	19.014	0.100
341.200	14.400	0.100
341.300	17.393	0.100
341.400	29.882	0.100
341.500	5.038	0.100
341.600	22.937	0.100
341.700	-2.329	0.100
341.800	5.423	0.100
341.900	33.598	0.100
342.000	19.647	0.100
342.100	13.999	0.100
342.200	17.373	0.100
342.300	17.992	0.100
342.400	27.426	0.100
342.500	32.612	0.100
342.600	5.547	0.100
342.700	23.261	0.100
342.800	27.471	0.100
342.900	43.009	0.100
343.000	29.192	0.100
343.100	18.669	0.100
343.200	18.209	0.100
343.300	14.532	0.100
343.400	30.331	0.100
343.500	24.816	0.100
343.600	39.774	0.100
343.700	25.935	0.100
343.800	21.047	0.100
343.900	33.757	0.100
344.000	37.988	0.100
344.100	22.783	0.100
344.200	28.887	0.100
344.300	26.434	0.100
344.400	24.651	0.100
344.500	22.781	0.100
344.600	45.759	0.100
344.700	25.240	0.100
344.800	23.034	0.100
344.900	20.134	0.100
345.000	27.020	0.100
345.100	30.398	0.100
345.200	33.295	0.100
345.300	32.525	0.100
345.400	25.170	0.100
345.500	26.481	0.100
345.600	36.893	0.100
345.700	23.324	0.100
345.800	28.490	0.100
345.900	28.512	0.100
346.000	26.090	0.100
346.100	24.507	0.100
346.200	35.790	0.100
346.300	41.351	0.100
346.400	31.418	0.100
346.500	29.184	0.100
346.600	25.236	0.100
346.700	35.822	0.100
346.800	38.983	0.100
346.900	14.974	0.100
347.000	36.048	0.100
347.100	37.304	0.100
347.200	42.141	0.100
347.300	16.111	0.100
347.400	29.904	0.100
347.500	39.275	0.100
347.600	13.111	0.100
347.700	48.896	0.100
347.800	24.620	0.100
347.900	33.039	0.100
348.000	21.393	0.100
348.100	37.843	0.100
348.200	34.541	0.100
348.300	52.793	0.100
348.400	28.051	0.100
348.500	17.821	0.100
348.600	27.324	0.100
348.700	36.124	0.100
348.800	31.072	0.100
348.900	45.693	0.100
349.000	22.574	0.100
349.100	43.194	0.100
349.200	37.074	0.100
349.300	22.020	0.100
349.400	37.835	0.100
349.500	34.817	0.100
349.600	38.298	0.100
349.700	37.323	0.100
349.800	27.112	0.100
349.900	39.668	0.100
350.000	36.114	0.100
350.100	31.519	0.100
350.200	31.330	0.100
350.300	21.502	0.100
350.400	40.768	0.100
350.500	44.486	0.100
350.600	35.392	0.100
350.700	46.553	0.100
350.800	10.494	0.100
350.900	58.894	0.100
351.000	24.692	0.100
351.100	43.064	0.100
351.200	27.378	0.100
351.300	36.568	0.100
351.400	29.908	0.100
351.500	37.293	0.100
351.600	34.777	0.100
351.700	40.916	0.100
351.800	41.756	0.100
351.900	42.574	0.100
352.000	21.160	0.100
352.100	44.669	0.100
352.200	44.461	0.100
352.300	36.221	0.100
352.400	42.036	0.100
352.500	38.542	0.100
352.600	28.057	0.100
352.700	22.535	0.100
352.800	42.143	0.100
352.900	40.444	0.100
353.000	35.935	0.100
353.100	18.281	0.100
353.200	28.328	0.100
353.300	32.483	0.100
353.400	41.683	0.100
353.500	26.872	0.100
353.600	31.477	0.100
353.700	50.176	0.100
353.800	26.499	0.100
353.900	31.001	0.100
354.000	15.691	0.100
354.100	61.837	0.100
354.200	24.045	0.100
354.300	39.578	0.100
354.400	44.322	0.100
354.500	36.806	0.100
354.600	37.987	0.100
354.700	20.401	0.100
354.800	31.044	0.100
354.900	20.982	0.100
355.000	35.390	0.100
355.100	9.782	0.100
355.200	48.774	0.100
355.300	42.216	0.100
355.400	30.112	0.100
355.500	35.486	0.100
355.600	30.309	0.100
355.700	42.000	0.100
355.800	34.258	0.100
355.900	41.524	0.100
356.000	28.024	0.100
356.100	30.022	0.100
356.200	38.681	0.100
356.300	30.888	0.100
356.400	17.893	0.100
356.500	33.719	0.100
356.600	19.955	0.100
356.700	30.277	0.100
356.800	43.093	0.100
356.900	50.148	0.100
357.000	34.615	0.100
357.100	29.384	0.100
357.200	42.442	0.100
357.300	30.387	0.100
357.400	32.379	0.100
357.500	24.247	0.100
357.600	34.752	0.100
357.700	35.081	0.100
357.800	37.465	0.100
357.900	27.422	0.100
358.000	32.253	0.100
358.100	34.001	0.100
358.200	40.168	0.100
358.300	34.861	0.100
358.400	17.862	0.100
358.500	8.566	0.100
358.600	48.843	0.100
358.700	47.509	0.100
358.800	35.718	0.100
358.900	37.989	0.100
359.000	38.730	0.100
359.100	38.112	0.100
359.200	31.090	0.100
359.300	38.659	0.100
359.400	33.699	0.100
359.500	41.549	0.100
359.600	32.295	0.100
359.700	25.564	0.100
359.800	30.297	0.100
359.900	46.258	0.100
360.000	39.325	0.100
360.100	30.461	0.100
360.200	36.914	0.100
360.300	43.393	0.100
360.400	9.494	0.100
360.500	40.964	0.100
360.600	28.850	0.100
360.700	29.846	0.100
360.800	39.061	0.100
360.900	20.813	0.100
361.000	22.676	0.100
361.100	31.258	0.100
361.200	20.941	0.100
361.300	45.227	0.100
361.400	29.052	0.100
361.500	48.686	0.100
361.600	21.663	0.100
361.700	31.221	0.100
361.800	49.265	0.100
361.900	37.541	0.100
362.000	36.762	0.100
362.100	28.645	0.100
362.200	52.378	0.100
362.300	38.139	0.100
362.400	47.898	0.100
362.500	19.735	0.100
362.600	30.297	0.100
362.700	19.882	0.100
362.800	37.119	0.100
362.900	16.069	0.100
363.000	52.079	0.100
363.100	19.067	0.100
363.200	33.180	0.100
363.300	41.841	0.100
363.400	40.442	0.100
363.500	37.560	0.100
363.600	24.196	0.100
363.700	24.204	0.100
363.800	23.313	0.100
363.900	25.814	0.100
364.000	35.882	0.100
364.100	47.356	0.100
364.200	43.117	0.100
364.300	44.209	0.100
364.400	44.162	0.100
364.500	12.378	0.100
364.600	33.024	0.100
364.700	36.626	0.100
364.800	38.076	0.100
364.900	41.276	0.100
365.000	51.288	0.100
365.100	42.551	0.100
365.200	23.113	0.100
365.300	39.545	0.100
365.400	40.462	0.100
365.500	36.555	0.100
365.600	41.143	0.100
365.700	43.809	0.100
365.800	39.483	0.100
365.900	23.708	0.100
366.000	41.113	0.100
366.100	42.633	0.100
366.200	34.985	0.100
366.300	48.827	0.100
366.400	44.161	0.100
366.500	40.802	0.100
366.600	49.087	0.100
366.700	31.108	0.100
366.800	31.336	0.100
366.900	25.140	0.100
367.000	24.384	0.100
367.100	30.395	0.100
367.200	48.134	0.100
367.300	31.847	0.100
367.400	36.154	0.100
367.500	40.362	0.100
367.600	41.076	0.100
367.700	33.382	0.100
367.800	33.521	0.100
367.900	28.231	0.100
368.000	37.972	0.100
368.100	31.375	0.100
368.200	31.553	0.100
368.300	20.525	0.100
368.400	37.975	0.100
368.500	29.955	0.100
368.600	44.013	0.100
368.700	38.753	0.100
368.800	37.750	0.100
368.900	27.973	0.100
369.000	29.004	0.100
369.100	53.397	0.100
369.200	35.541	0.100
369.300	38.564	0.100
369.400	18.604	0.100
369.500	37.384	0.100
369.600	38.716	0.100
369.700	33.785	0.100
369.800	35.630	0.100
369.900	39.670	0.100
370.000	42.242	0.100
370.100	36.403	0.100
370.200	34.521	0.100
370.300	18.609	0.100
370.400	40.806	0.100
370.500	32.845	0.100
370.600	27.060	0.100
370.700	60.579	0.100
370.800	35.378	0.100
370.900	29.471	0.100
371.000	25.765	0.100
371.100	50.162	0.100
371.200	27.327	0.100
371.300	35.690	0.100
371.400	43.139	0.100
371.500	31.745	0.100
371.600	21.773	0.100
371.700	46.379	0.100
371.800	27.288	0.100
371.900	50.243	0.100
372.000	30.723	0.100
372.100	32.474	0.100
372.200	42.423	0.100
372.300	43.037	0.100
372.400	27.764	0.100
372.500	49.278	0.100
372.600	43.128	0.100
372.700	19.311	0.100
372.800	29.460	0.100
372.900	31.414	0.100
373.000	40.823	0.100
373.100	44.448	0.100
373.200	35.941	0.100
373.300	39.461	0.100
373.400	25.440	0.100
373.500	43.193	0.100
373.600	24.585	0.100
373.700	42.654	0.100
373.800	33.407	0.100
373.900	38.149	0.100
374.000	56.146	0.100
374.100	43.066	0.100
374.200	36.516	0.100
374.300	31.073	0.100
374.400	40.757	0.100
374.500	44.145	0.100
374.600	28.483	0.100
374.700	41.196	0.100
374.800	39.185	0.100
374.900	36.197	0.100
375.000	37.350	0.100
375.100	45.015	0.100
375.200	35.777	0.100
375.300	30.311	0.100
375.400	40.293	0.100
375.500	39.859	0.100
375.600	39.301	0.100
375.700	39.133	0.100
375.800	22.008	0.100
375.900	40.465	0.100
376.000	46.095	0.100
376.100	49.587	0.100
376.200	40.488	0.100
376.300	37.101	0.100
376.400	32.379	0.100
376.500	38.051	0.100
376.600	35.056	0.100
376.700	37.912	0.100
376.800	32.079	0.100
376.900	17.692	0.100
377.000	27.690	0.100
377.100	45.205	0.100
377.200	42.670	0.100
377.300	37.753	0.100
377.400	34.575	0.100
377.500	37.020	0.100
377.600	26.427	0.100
377.700	50.180	0.100
377.800	46.550	0.100
377.900	34.978	0.100
378.000	42.070	0.100
378.100	44.103	0.100
378.200	46.645	0.100
378.300	22.443	0.100
378.400	45.375	0.100
378.500	38.546	0.100
378.600	38.725	0.100
378.700	33.744	0.100
378.800	37.522	0.100
378.900	29.278	0.100
379.000	21.416	0.100
379.100	58.580	0.100
379.200	35.690	0.100
379.300	40.132	0.100
379.400	31.917	0.100
379.500	28.741	0.100
379.600	51.325	0.100
379.700	47.239	0.100
379.800	40.015	0.100
379.900	39.959	0.100
380.000	48.310	0.100
380.100	40.176	0.100
380.200	26.830	0.100
380.300	40.126	0.100
380.400	42.419	0.100
380.500	42.232	0.100
380.600	43.904	0.100
380.700	50.776	0.100
380.800	40.031	0.100
380.900	24.160	0.100
381.000	43.852	0.100
381.100	46.119	0.100
381.200	37.877	0.100
381.300	49.897	0.100
381.400	41.081	0.100
381.500	40.526	0.100
381.600	15.513	0.100
381.700	37.234	0.100
381.800	47.512	0.100
381.900	27.730	0.100
382.000	31.802	0.100
382.100	31.194	0.100
382.200	45.713	0.100
382.300	38.530	0.100
382.400	29.658	0.100
382.500	37.370	0.100
382.600	35.260	0.100
382.700	40.056	0.100
382.800	32.598	0.100
382.900	56.231	0.100
383.000	43.782	0.100
383.100	35.724	0.100
383.200	38.151	0.100
383.300	38.791	0.100
383.400	35.978	0.100
383.500	31.519	0.100
383.600	23.644	0.100
383.700	30.784	0.100
383.800	29.668	0.100
383.900	33.115	0.100
384.000	34.936	0.100
384.100	31.364	0.100
384.200	38.990	0.100
384.300	44.185	0.100
384.400	53.552	0.100
384.500	26.370	0.100
384.600	24.507	0.100
384.700	29.226	0.100
384.800	39.234	0.100
384.900	44.127	0.100
385.000	41.985	0.100
385.100	32.863	0.100
385.200	37.356	0.100
385.300	45.293	0.100
385.400	35.964	0.100
385.500	31.682	0.100
385.600	24.977	0.100
385.700	37.818	0.100
385.800	17.182	0.100
385.900	35.209	0.100
386.000	34.205	0.100
386.100	45.144	0.100
386.200	41.832	0.100
386.300	46.502	0.100
386.400	35.798	0.100
386.500	40.257	0.100
386.600	25.571	0.100
386.700	42.292	0.100
386.800	32.707	0.100
386.900	37.919	0.100
387.000	33.409	0.100
387.100	45.001	0.100
387.200	35.400	0.100
387.300	60.066	0.100
387.400	40.874	0.100
387.500	28.701	0.100
387.600	27.566	0.100
387.700	46.582	0.100
387.800	46.113	0.100
387.900	23.166	0.100
388.000	49.385	0.100
388.100	29.474	0.100
388.200	34.171	0.100
388.300	33.595	0.100
388.400	16.180	0.100
388.500	42.803	0.100
388.600	42.349	0.100
388.700	37.231	0.100
388.800	38.223	0.100
388.900	46.813	0.100
389.000	53.156	0.100
389.100	26.111	0.100
389.200	47.493	0.100
389.300	50.568	0.100
389.400	29.899	0.100
389.500	33.890	0.100
389.600	33.564	0.100
389.700	46.747	0.100
389.800	52.131	0.100
389.900	36.789	0.100
390.000	30.475	0.100
390.100	38.759	0.100
390.200	25.613	0.100
390.300	36.277	0.100
390.400	51.148	0.100
390.500	41.667	0.100
390.600	28.789	0.100
390.700	29.037	0.100
390.800	38.372	0.100
390.900	37.712	0.100
391.000	23.579	0.100
391.100	7.279	0.100
391.200	14.922	0.100
391.300	40.656	0.100
391.400	14.121	0.100
391.500	17.568	0.100
391.600	-0.569	0.100
391.700	29.737	0.100
391.800	27.618	0.100
391.900	7.049	0.100
392.000	13.912	0.100
392.100	3.665	0.100
392.200	4.319	0.100
392.300	-2.392	0.100
392.400	12.806	0.100
392.500	25.613	0.100
392.600	9.687	0.100
392.700	11.663	0.100
392.800	-6.351	0.100
392.900	7.696	0.100
393.000	8.141	0.100
393.100	14.662	0.100
393.200	-5.724	0.100
393.300	19.830	0.100
393.400	1.624	0.100
393.500	-3.986	0.100
393.600	8.648	0.100
393.700	-12.074	0.100
393.800	-5.532	0.100
393.900	-5.613	0.100
394.000	13.600	0.100
394.100	-2.483	0.100
394.200	16.389	0.100
394.300	5.109	0.100
394.400	-3.739	0.100
394.500	-5.353	0.100
394.600	-0.851	0.100
394.700	-5.133	0.100
394.800	2.608	0.100
394.900	-14.264	0.100
395.000	-3.851	0.100
395.100	10.410	0.100
395.200	15.137	0.100
395.300	-29.958	0.100
395.400	21.097	0.100
395.500	12.342	0.100
395.600	2.730	0.100
395.700	-1.392	0.100
395.800	-6.287	0.100
395.900	4.123	0.100
396.000	1.394	0.100
396.100	-5.874	0.100
396.200	10.461	0.100
396.300	4.474	0.100
396.400	-7.369	0.100
396.500	1.347	0.100
396.600	17.867	0.100
396.700	-8.455	0.100
396.800	3.702	0.100
396.900	-0.566	0.100
397.000	5.703	0.100
397.100	-7.503	0.100
397.200	-14.735	0.100
397.300	-3.965	0.100
397.400	15.965	0.100
397.500	4.442	0.100
397.600	-3.020	0.100
397.700	2.132	0.100
397.800	5.760	0.100
397.900	-25.157	0.100
398.000	-25.909	0.100
398.100	3.052	0.100
398.200	6.440	0.100
398.300	-10.452	0.100
398.400	-8.619	0.100
398.500	23.455	0.100
398.600	-3.862	0.100
398.700	1.329	0.100
398.800	4.362	0.100
398.900	-17.752	0.100
399.000	4.136	0.100
399.100	-2.808	0.100
399.200	3.583	0.100
399.300	-16.846	0.100
399.400	-4.845	0.100
399.500	-4.619	0.100
399.600	-6.631	0.100
399.700	1.011	0.100
399.800	2.425	0.100
399.900	9.794	0.100
400.000	-5.645	0.100
400.100	-6.011	0.100
400.200	-12.619	0.100
400.300	4.509	0.100
400.400	1.561	0.100
400.500	11.350	0.100
400.600	-8.775	0.100
400.700	-8.714	0.100
400.800	5.860	0.100
400.900	-15.194	0.100
401.000	-8.257	0.100
401.100	-7.022	0.100
401.200	-10.517	0.100
401.300	6.487	0.100
401.400	-3.470	0.100
401.500	-4.530	0.100
401.600	14.551	0.100
401.700	-15.916	0.100
401.800	-18.227	0.100
401.900	-8.858	0.100
402.000	0.111	0.100
402.100	-6.238	0.100
402.200	-6.324	0.100
402.300	2.233	0.100
402.400	-0.138	0.100
402.500	0.106	0.100
402.600	4.698	0.100
402.700	-3.927	0.100
402.800	-8.619	0.100
402.900	0.274	0.100
403.000	-17.214	0.100
403.100	-7.604	0.100
403.200	10.379	0.100
403.300	-4.935	0.100
403.400	-13.581	0.100
403.500	-19.212	0.100
403.600	-8.051	0.100
403.700	-28.644	0.100
403.800	11.046	0.100
403.900	-10.152	0.100
404.000	2.607	0.100
404.100	-3.576	0.100
404.200	-0.557	0.100
404.300	-3.940	0.100
404.400	-0.199	0.100
404.500	-3.302	0.100
404.600	-0.222	0.100
404.700	-17.172	0.100
404.800	-11.683	0.100
404.900	-11.702	0.100
405.000	-5.150	0.100
405.100	-31.401	0.100
405.200	-18.296	0.100
405.300	3.117	0.100
405.400	-18.706	0.100
405.500	9.439	0.100
405.600	-10.207	0.100
405.700	-30.990	0.100
405.800	-8.978	0.100
405.900	-1.892	0.100
406.000	13.073	0.100
406.100	-14.447	0.100
406.200	10.134	0.100
406.300	-13.351	0.100
406.400	6.326	0.100
406.500	-10.586	0.100
406.600	-2.645	0.100
406.700	-21.458	0.100
406.800	-11.569	0.100
406.900	1.743	0.100
407.000	-10.356	0.100
407.100	-8.958	0.100
407.200	-4.790	0.100
407.300	-6.811	0.100
407.400	-5.565	0.100
407.500	-2.919	0.100
407.600	-18.265	0.100
407.700	-26.327	0.100
407.800	15.474	0.100
407.900	-33.602	0.100
408.000	-6.319	0.100
408.100	-9.341	0.100
408.200	-20.418	0.100
408.300	-2.154	0.100
408.400	-3.722	0.100
408.500	-0.507	0.100
408.600	-8.003	0.100
408.700	-8.186	0.100
408.800	-21.253	0.100
408.900	-8.396	0.100
409.000	-9.693	0.100
409.100	-6.880	0.100
409.200	-17.812	0.100
409.300	-14.091	0.100
409.400	-18.173	0.100
409.500	-12.245	0.100
409.600	-4.499	0.100
409.700	-3.756	0.100
409.800	-5.395	0.100
409.900	-17.902	0.100
410.000	-3.767	0.100
410.100	-9.702	0.100
410.200	-22.070	0.100
410.300	-5.034	0.100
410.400	-4.202	0.100
410.500	-5.646	0.100
410.600	-8.277	0.100
410.700	-2.178	0.100
410.800	-6.802	0.100
410.900	-15.340	0.100
411.000	-2.367	0.100
411.100	-5.821	0.100
411.200	-18.491	0.100
411.300	-15.547	0.100
411.400	-7.333	0.100
411.500	-0.133	0.100
411.600	-17.506	0.100
411.700	2.200	0.100
411.800	-33.473	0.100
411.900	-7.634	0.100
412.000	-16.792	0.100
412.100	6.098	0.100
412.200	-16.693	0.100
412.300	-1.316	0.100
412.400	-18.577	0.100
412.500	-16.527	0.100
412.600	-10.741	0.100
412.700	-13.114	0.100
412.800	-18.546	0.100
412.900	3.285	0.100
413.000	-12.521	0.100
413.100	-1.236	0.100
413.200	-8.369	0.100
413.300	-21.030	0.100
413.400	-31.361	0.100
413.500	-4.601	0.100
413.600	-16.009	0.100
413.700	-12.308	0.100
413.800	-7.612	0.100
413.900	-18.278	0.100
414.000	-7.893	0.100
414.100	-23.060	0.100
414.200	-6.250	0.100
414.300	-12.767	0.100
414.400	-17.961	0.100
414.500	-29.010	0.100
414.600	-18.109	0.100
414.700	10.989	0.100
414.800	-3.739	0.100
414.900	-10.718	0.100
415.000	-4.367	0.100
415.100	-19.487	0.100
415.200	-10.823	0.100
415.300	-5.913	0.100
415.400	-6.030	0.100
415.500	-11.284	0.100
415.600	-10.845	0.100
415.700	1.524	0.100
415.800	-29.604	0.100
415.900	-32.252	0.100
416.000	2.681	0.100
416.100	-17.098	0.100
416.200	-18.590	0.100
416.300	-11.823	0.100
416.400	-34.497	0.100
416.500	10.992	0.100
416.600	-2.664	0.100
416.700	-22.220	0.100
416.800	6.750	0.100
416.900	-12.645	0.100
417.000	-14.536	0.100
417.100	-8.222	0.100
417.200	-7.363	0.100
417.300	-15.098	0.100
417.400	-12.435	0.100
417.500	-27.752	0.100
417.600	-37.181	0.100
417.700	-3.927	0.100
417.800	-21.804	0.100
417.900	1.212	0.100
418.000	-11.467	0.100
418.100	-4.643	0.100
418.200	-21.065	0.100
418.300	-3.242	0.100
418.400	-2.129	0.100
418.500	-2.310	0.100
418.600	-24.309	0.100
418.700	-26.859	0.100
418.800	-23.727	0.100
418.900	-6.562	0.100
419.000	-16.662	0.100
419.100	-5.338	0.100
419.200	-20.864	0.100
419.300	-16.143	0.100
419.400	-21.383	0.100
419.500	-20.618	0.100
419.600	-34.190	0.100
419.700	-10.493	0.100
419.800	-15.402	0.100
419.900	-9.128	0.100
420.000	-19.182	0.100
420.100	-19.259	0.100
420.200	-32.603	0.100
420.300	-2.903	0.100
420.400	-18.105	0.100
420.500	-17.403	0.100
420.600	-10.021	0.100
420.700	-19.098	0.100
420.800	-13.261	0.100
420.900	-5.390	0.100
421.000	-23.296	0.100
421.100	-2.352	0.100
421.200	-5.004	0.100
421.300	-9.303	0.100
421.400	-15.031	0.100
421.500	-12.624	0.100
421.600	-17.722	0.100
421.700	-19.353	0.100
421.800	-15.777	0.100
421.900	-24.616	0.100
422.000	-10.215	0.100
422.100	-13.055	0.100
422.200	-11.972	0.100
422.300	-18.366	0.100
422.400	-29.104	0.100
422.500	-17.475	0.100
422.600	4.460	0.100
422.700	-26.076	0.100
422.800	-9.988	0.100
422.900	-10.407	0.100
423.000	-4.692	0.100
423.100	-7.115	0.100
423.200	-15.446	0.100
423.300	-22.008	0.100
423.400	-30.722	0.100
423.500	-6.158	0.100
423.600	-10.304	0.100
423.700	-35.843	0.100
423.800	-22.463	0.100
423.900	-15.807	0.100
424.000	-17.218	0.100
424.100	-15.246	0.100
424.200	-22.159	0.100
424.300	-27.914	0.100
424.400	-11.218	0.100
424.500	-17.184	0.100
424.600	-12.674	0.100
424.700	-24.111	0.100
424.800	-13.553	0.100
424.900	-16.297	0.100
425.000	-31.220	0.100
425.100	-27.124	0.100
425.200	-11.275	0.100
425.300	-19.358	0.100
425.400	-12.312	0.100
425.500	-7.527	0.100
425.600	-17.778	0.100
425.700	-23.625	0.100
425.800	-4.250	0.100
425.900	-13.189	0.100
426.000	-21.200	0.100
426.100	-20.408	0.100
426.200	-16.184	0.100
426.300	-13.442	0.100
426.400	-10.484	0.100
426.500	-15.815	0.100
426.600	-24.241	0.100
426.700	-33.019	0.100
426.800	-6.335	0.100
426.900	-9.367	0.100
427.000	-12.004	0.100
427.100	-17.266	0.100
427.200	-10.520	0.100
427.300	-23.931	0.100
427.400	-13.536	0.100
427.500	-17.208	0.100
427.600	-16.642	0.100
427.700	-18.969	0.100
427.800	-11.021	0.100
427.900	-16.155	0.100
428.000	-17.694	0.100
428.100	-19.597	0.100
428.200	-6.127	0.100
428.300	-12.088	0.100
428.400	-9.322	0.100
428.500	-30.602	0.100
428.600	-25.801	0.100
428.700	-20.695	0.100
428.800	-5.028	0.100
428.900	-23.144	0.100
429.000	-13.330	0.100
429.100	-9.688	0.100
429.200	-15.943	0.100
429.300	-8.435	0.100
429.400	-23.548	0.100
429.500	-15.326	0.100
429.600	-8.532	0.100
429.700	-18.917	0.100
429.800	-20.579	0.100
429.900	-31.768	0.100
430.000	-6.551	0.100
430.100	-10.527	0.100
430.200	-18.661	0.100
430.300	-21.688	0.100
430.400	0.861	0.100
430.500	-34.332	0.100
430.600	-21.971	0.100
430.700	-3.401	0.100
430.800	-9.673	0.100
430.900	-14.863	0.100
431.000	-16.948	0.100
431.100	-23.125	0.100
431.200	-9.631	0.100
431.300	-15.840	0.100
431.400	-22.088	0.100
431.500	-10.579	0.100
431.600	-16.609	0.100
431.700	-21.192	0.100
431.800	-15.577	0.100
431.900	-13.660	0.100
432.000	-15.531	0.100
432.100	-11.678	0.100
432.200	-23.176	0.100
432.300	-11.901	0.100
432.400	-10.380	0.100
432.500	-18.906	0.100
432.600	-7.731	0.100
432.700	-19.543	0.100
432.800	-21.882	0.100
432.900	-34.706	0.100
433.000	4.620	0.100
433.100	-31.510	0.100
433.200	-13.355	0.100
433.300	-15.483	0.100
433.400	-15.419	0.100
433.500	-25.720	0.100
433.600	-29.461	0.100
433.700	-6.584	0.100
433.800	-9.001	0.100
433.900	-30.262	0.100
434.000	-7.022	0.100
434.100	-19.395	0.100
434.200	-17.326	0.100
434.300	-14.519	0.100
434.400	-27.019	0.100
434.500	-22.551	0.100
434.600	-17.351	0.100
434.700	1.736	0.100
434.800	-24.352	0.100
434.900	-21.640	0.100
435.000	-13.532	0.100
435.100	-16.614	0.100
435.200	-18.220	0.100
435.300	-17.739	0.100
435.400	-12.495	0.100
435.500	-10.547	0.100
435.600	-11.677	0.100
435.700	-4.575	0.100
435.800	-18.323	0.100
435.900	-12.395	0.100
436.000	-21.383	0.100
436.100	-28.886	0.100
436.200	-23.660	0.100
436.300	-6.518	0.100
436.400	-25.351	0.100
436.500	-23.750	0.100
436.600	-30.270	0.100
436.700	-23.504	0.100
436.800	-24.659	0.100
436.900	-5.988	0.100
437.000	-19.969	0.100
437.100	-4.812	0.100
437.200	-15.658	0.100
437.300	-19.906	0.100
437.400	-30.437	0.100
437.500	-18.011	0.100
437.600	-20.685	0.100
437.700	-9.268	0.100
437.800	-9.162	0.100
437.900	-21.796	0.100
438.000	-13.037	0.100
438.100	-25.364	0.100
438.200	-26.086	0.100
438.300	-14.862	0.100
438.400	-12.609	0.100
438.500	-19.150	0.100
438.600	-15.542	0.100
438.700	-12.737	0.100
438.800	-28.408	0.100
438.900	-27.009	0.100
439.000	-22.282	0.100
439.100	-6.545	0.100
439.200	-16.665	0.100
439.300	-11.963	0.100
439.400	-25.425	0.100
439.500	-18.243	0.100
439.600	-17.577	0.100
439.700	-4.916	0.100
439.800	-12.858	0.100
439.900	-18.475	0.100
440.000	-6.421	0.100
440.100	-9.762	0.100
440.200	-16.880	0.100
440.300	-19.380	0.100
440.400	-0.987	0.100
440.500	-30.529	0.100
440.600	-19.973	0.100
440.700	1.829	0.100
440.800	-1.420	0.100
440.900	-19.784	0.100
441.000	-30.338	0.100
441.100	-26.268	0.100
441.200	-10.699	0.100
441.300	-18.261	0.100
441.400	-10.788	0.100
441.500	-27.727	0.100
441.600	-7.426	0.100
441.700	-18.816	0.100
441.800	-7.294	0.100
441.900	-6.975	0.100
442.000	-24.049	0.100
442.100	-18.497	0.100
442.200	-18.459	0.100
442.300	-8.194	0.100
442.400	-18.797	0.100
442.500	-17.234	0.100
442.600	-32.944	0.100
442.700	-13.080	0.100
442.800	-14.764	0.100
442.900	-11.033	0.100
443.000	-32.500	0.100
443.100	-10.704	0.100
443.200	-17.984	0.100
443.300	-4.793	0.100
443.400	-27.615	0.100
443.500	-35.051	0.100
443.600	-16.186	0.100
443.700	-3.787	0.100
443.800	-17.101	0.100
443.900	-12.584	0.100
444.000	-1.462	0.100
444.100	-22.549	0.100
444.200	-20.981	0.100
444.300	-10.446	0.100
444.400	-9.534	0.100
444.500	-14.980	0.100
444.600	-10.729	0.100
444.700	-22.623	0.100
444.800	-31.643	0.100
444.900	-7.676	0.100
445.000	-6.678	0.100
445.100	-19.471	0.100
445.200	-27.893	0.100
445.300	-8.734	0.100
445.400	-4.167	0.100
445.500	-16.003	0.100
445.600	-15.384	0.100
445.700	-24.486	0.100
445.800	-22.232	0.100
445.900	-7.782	0.100
446.000	-26.266	0.100
446.100	-5.174	0.100
446.200	-0.219	0.100
446.300	-19.169	0.100
446.400	-25.306	0.100
446.500	-26.360	0.100
446.600	-17.269	0.100
446.700	-20.940	0.100
446.800	-6.044	0.100
446.900	-13.537	0.100
447.000	-23.536	0.100
447.100	-21.551	0.100
447.200	-33.220	0.100
447.300	-21.905	0.100
447.400	-8.353	0.100
447.500	-18.195	0.100
447.600	-29.095	0.100
447.700	-26.551	0.100
447.800	-12.376	0.100
447.900	-20.493	0.100
448.000	-4.801	0.100
448.100	-7.326	0.100
448.200	-33.306	0.100
448.300	-11.294	0.100
448.400	-15.909	0.100
448.500	-13.052	0.100
448.600	-17.766	0.100
448.700	-5.964	0.100
448.800	-32.111	0.100
448.900	-7.241	0.100
449.000	-34.372	0.100
449.100	-18.868	0.100
449.200	-29.465	0.100
449.300	-22.083	0.100
449.400	-20.987	0.100
449.500	-9.975	0.100
449.600	-16.220	0.100
449.700	-23.475	0.100
449.800	-18.412	0.100
449.900	-7.708	0.100
450.000	-6.242	0.100
450.100	-18.880	0.100
450.200	-14.326	0.100
450.300	-13.174	0.100
450.400	-25.312	0.100
450.500	-28.369	0.100
450.600	1.066	0.100
450.700	-35.572	0.100
450.800	-20.405	0.100
450.900	-10.759	0.100
451.000	-16.625	0.100
451.100	-19.062	0.100
451.200	-16.525	0.100
451.300	-11.325	0.100
451.400	-26.207	0.100
451.500	-28.704	0.100
451.600	-14.915	0.100
451.700	-29.999	0.100
451.800	-26.668	0.100
451.900	-31.276	0.100
452.000	-1.712	0.100
452.100	-5.812	0.100
452.200	-10.251	0.100
452.300	-17.452	0.100
452.400	-19.475	0.100
452.500	0.397	0.100
452.600	-29.640	0.100
452.700	-16.337	0.100
452.800	-15.016	0.100
452.900	-13.080	0.100
453.000	-17.050	0.100
453.100	-13.033	0.100
453.200	-26.241	0.100
453.300	-15.918	0.100
453.400	-21.543	0.100
453.500	-44.344	0.100
453.600	-11.885	0.100
453.700	-3.175	0.100
453.800	-2.150	0.100
453.900	-11.221	0.100
454.000	-11.899	0.100
454.100	-38.728	0.100
454.200	-2.048	0.100
454.300	-13.722	0.100
454.400	-29.878	0.100
454.500	10.235	0.100
454.600	-22.319	0.100
454.700	-24.383	0.100
454.800	-23.991	0.100
454.900	-11.030	0.100
455.000	-21.663	0.100
455.100	-19.571	0.100
455.200	-15.561	0.100
455.300	-12.697	0.100
455.400	-16.810	0.100
455.500	-27.472	0.100
455.600	-30.818	0.100
455.700	0.964	0.100
455.800	-14.927	0.100
455.900	-14.067	0.100
456.000	-32.880	0.100
456.100	-9.417	0.100
456.200	-0.862	0.100
456.300	-3.189	0.100
456.400	-21.884	0.100
456.500	-8.069	0.100
456.600	-20.587	0.100
456.700	-14.267	0.100
456.800	-14.084	0.100
456.900	-7.557	0.100
457.000	-12.665	0.100
457.100	-18.438	0.100
457.200	-18.104	0.100
457.300	-21.792	0.100
457.400	-15.943	0.100
457.500	-18.203	0.100
457.600	-6.892	0.100
457.700	-10.055	0.100
457.800	-3.845	0.100
457.900	-8.208	0.100
458.000	-18.906	0.100
458.100	-21.793	0.100
458.200	-14.635	0.100
458.300	-19.044	0.100
458.400	-3.352	0.100
458.500	-16.575	0.100
458.600	-40.285	0.100
458.700	-27.442	0.100
458.800	-15.456	0.100
458.900	-13.354	0.100
459.000	-15.365	0.100
459.100	-3.287	0.100
459.200	-5.585	0.100
459.300	-20.483	0.100
459.400	-10.885	0.100
459.500	-14.083	0.100
459.600	-12.325	0.100
459.700	-19.992	0.100
459.800	-25.279	0.100
459.900	-11.524	0.100
460.000	-27.403	0.100
460.100	-5.891	0.100
460.200	-40.379	0.100
460.300	-14.178	0.100
460.400	-30.466	0.100
460.500	-5.863	0.100
460.600	-13.529	0.100
460.700	-20.597	0.100
460.800	-24.681	0.100
460.900	-32.564	0.100
461.000	-17.207	0.100
461.100	-8.566	0.100
461.200	-5.133	0.100
461.300	-7.379	0.100
461.400	-21.135	0.100
461.500	-20.771	0.100
461.600	-5.197	0.100
461.700	-18.371	0.100
461.800	-15.376	0.100
461.900	-5.462	0.100
462.000	-25.575	0.100
462.100	-14.774	0.100
462.200	-15.570	0.100
462.300	-13.022	0.100
462.400	-6.915	0.100
462.500	-4.508	0.100
462.600	-4.619	0.100
462.700	-23.950	0.100
462.800	-10.224	0.100
462.900	-5.068	0.100
463.000	-17.354	0.100
463.100	-6.736	0.100
463.200	-0.938	0.100
463.300	-13.975	0.100
463.400	-27.617	0.100
463.500	-24.057	0.100
463.600	-8.854	0.100
463.700	-13.763	0.100
463.800	-16.044	0.100
463.900	6.208	0.100
464.000	-15.978	0.100
464.100	-10.039	0.100
464.200	-0.520	0.100
464.300	-25.600	0.100
464.400	-23.508	0.100
464.500	-31.869	0.100
464.600	-20.559	0.100
464.700	-1.295	0.100
464.800	-16.730	0.100
464.900	-13.673	0.100
465.000	-21.392	0.100
465.100	-23.217	0.100
465.200	-16.166	0.100
465.300	-18.772	0.100
465.400	-0.997	0.100
465.500	-20.344	0.100
465.600	-8.619	0.100
465.700	-9.035	0.100
465.800	-14.003	0.100
465.900	-25.500	0.100
466.000	-26.354	0.100
466.100	-1.600	0.100
466.200	-15.487	0.100
466.300	-17.799	0.100
466.400	-11.498	0.100
466.500	-10.828	0.100
466.600	-15.234	0.100
466.700	-18.793	0.100
466.800	-11.677	0.100
466.900	-5.750	0.100
467.000	-15.736	0.100
467.100	-26.390	0.100
467.200	-17.702	0.100
467.300	0.730	0.100
467.400	1.092	0.100
467.500	-16.785	0.100
467.600	-30.653	0.100
467.700	-35.652	0.100
467.800	-26.179	0.100
467.900	-26.513	0.100
468.000	10.331	0.100
468.100	-21.048	0.100
468.200	-11.786	0.100
468.300	-3.970	0.100
468.400	-15.310	0.100
468.500	-34.195	0.100
468.600	-6.269	0.100
468.700	-3.880	0.100
468.800	-28.398	0.100
468.900	-18.549	0.100
469.000	-11.881	0.100
469.100	-18.676	0.100
469.200	-42.027	0.100
469.300	-30.937	0.100
469.400	-9.266	0.100
469.500	-18.061	0.100
469.600	-16.171	0.100
469.700	-23.836	0.100
469.800	-19.548	0.100
469.900	-17.225	0.100
470.000	-22.477	0.100
470.100	-34.324	0.100
470.200	-10.639	0.100
470.300	-12.374	0.100
470.400	-9.076	0.100
470.500	-10.311	0.100
470.600	-37.679	0.100
470.700	-20.590	0.100
470.800	-6.920	0.100
470.900	-0.646	0.100
471.000	-17.234	0.100
471.100	-12.688	0.100
471.200	-0.614	0.100
471.300	-28.113	0.100
471.400	-10.470	0.100
471.500	-9.835	0.100
471.600	-8.653	0.100
471.700	-22.854	0.100
471.800	-2.941	0.100
471.900	-10.867	0.100
472.000	-18.635	0.100
472.100	-20.134	0.100
472.200	-13.593	0.100
472.300	-17.683	0.100
472.400	5.690	0.100
472.500	-7.082	0.100
472.600	-26.436	0.100
472.700	-10.297	0.100
472.800	-15.953	0.100
472.900	-15.781	0.100
473.000	-0.189	0.100
473.100	-18.628	0.100
473.200	-18.357	0.100
473.300	-12.980	0.100
473.400	-34.838	0.100
473.500	-8.480	0.100
473.600	-10.043	0.100
473.700	-5.568	0.100
473.800	-22.568	0.100
473.900	-11.575	0.100
474.000	-25.879	0.100
474.100	-14.248	0.100
474.200	-29.625	0.100
474.300	-25.132	0.100
474.400	10.678	0.100
474.500	-0.989	0.100
474.600	-12.891	0.100
474.700	-40.937	0.100
474.800	-8.156	0.100
474.900	-34.076	0.100
475.000	-7.472	0.100
475.100	-24.551	0.100
475.200	-4.822	0.100
475.300	-17.190	0.100
475.400	-7.689	0.100
475.500	-23.581	0.100
475.600	-26.857	0.100
475.700	-10.926	0.100
475.800	-15.172	0.100
475.900	-3.931	0.100
476.000	-18.130	0.100
476.100	-15.175	0.100
476.200	-26.874	0.100
476.300	-8.752	0.100
476.400	-18.566	0.100
476.500	-13.672	0.100
476.600	-30.386	0.100
476.700	-8.236	0.100
476.800	-5.557	0.100
476.900	-8.840	0.100
477.000	-6.919	0.100
477.100	-18.780	0.100
477.200	-24.277	0.100
477.300	-6.821	0.100
477.400	-13.616	0.100
477.500	-30.093	0.100
477.600	-22.802	0.100
477.700	-1.851	0.100
477.800	-32.522	0.100
477.900	-2.632	0.100
478.000	-28.369	0.100
478.100	-10.501	0.100
478.200	-20.363	0.100
478.300	-9.550	0.100
478.400	-11.275	0.100
478.500	-18.277	0.100
478.600	-2.436	0.100
478.700	-17.477	0.100
478.800	-11.987	0.100
478.900	-32.755	0.100
479.000	3.798	0.100
479.100	-21.764	0.100
479.200	-22.779	0.100
479.300	-21.404	0.100
479.400	1.345	0.100
479.500	-13.406	0.100
479.600	-23.883	0.100
479.700	-0.946	0.100
479.800	-22.178	0.100
479.900	-15.803	0.100
480.000	-16.285	0.100
480.100	-5.170	0.100
480.200	-8.321	0.100
480.300	-13.972	0.100
480.400	-12.294	0.100
480.500	-26.337	0.100
480.600	-3.327	0.100
480.700	-15.881	0.100
480.800	-7.456	0.100
480.900	-19.774	0.100
481.000	-13.189	0.100
481.100	-4.974	0.100
481.200	2.474	0.100
481.300	23.545	0.100
481.400	-0.070	0.100
481.500	-3.301	0.100
481.600	4.143	0.100
481.700	17.066	0.100
481.800	4.180	0.100
481.900	15.939	0.100
482.000	9.568	0.100
482.100	12.773	0.100
482.200	7.478	0.100
482.300	9.915	0.100
482.400	4.124	0.100
482.500	20.100	0.100
482.600	7.895	0.100
482.700	6.801	0.100
482.800	6.505	0.100
482.900	13.407	0.100
483.000	18.412	0.100
483.100	-11.344	0.100
483.200	10.157	0.100
483.300	17.065	0.100
483.400	8.727	0.100
483.500	-1.146	0.100
483.600	20.428	0.100
483.700	15.790	0.100
483.800	2.158	0.100
483.900	5.574	0.100
484.000	11.448	0.100
484.100	21.983	0.100
484.200	-0.149	0.100
484.300	21.069	0.100
484.400	12.173	0.100
484.500	-1.518	0.100
484.600	7.384	0.100
484.700	12.289	0.100
484.800	3.909	0.100
484.900	13.580	0.100
485.000	2.153	0.100
485.100	-5.083	0.100
485.200	15.938	0.100
485.300	1.539	0.100
485.400	8.568	0.100
485.500	14.123	0.100
485.600	-16.344	0.100
485.700	2.745	0.100
485.800	1.406	0.100
485.900	-8.931	0.100
486.000	17.105	0.100
486.100	-3.883	0.100
486.200	6.912	0.100
486.300	-3.183	0.100
486.400	12.263	0.100
486.500	1.082	0.100
486.600	-0.703	0.100
486.700	30.289	0.100
486.800	10.219	0.100
486.900	10.666	0.100
487.000	33.818	0.100
487.100	0.568	0.100
487.200	23.446	0.100
487.300	-0.497	0.100
487.400	4.628	0.100
487.500	6.313	0.100
487.600	5.526	0.100
487.700	8.243	0.100
487.800	1.132	0.100
487.900	2.547	0.100
488.000	7.326	0.100
488.100	5.116	0.100
488.200	13.878	0.100
488.300	6.550	0.100
488.400	13.220	0.100
488.500	1.605	0.100
488.600	11.288	0.100
488.700	-0.696	0.100
488.800	11.350	0.100
488.900	13.422	0.100
489.000	15.624	0.100
489.100	9.642	0.100
489.200	13.215	0.100
489.300	12.842	0.100
489.400	13.915	0.100
489.500	15.967	0.100
489.600	10.043	0.100
489.700	11.932	0.100
489.800	7.367	0.100
489.900	12.281	0.100
490.000	-2.371	0.100
490.100	11.435	0.100
490.200	6.956	0.100
490.300	25.237	0.100
490.400	14.006	0.100
490.500	13.941	0.100
490.600	20.934	0.100
490.700	18.765	0.100
490.800	28.970	0.100
490.900	5.407	0.100
491.000	15.020	0.100
491.100	5.589	0.100
491.200	23.826	0.100
491.300	8.090	0.100
491.400	13.756	0.100
491.500	-3.866	0.100
491.600	21.957	0.100
491.700	35.726	0.100
491.800	32.929	0.100
491.900	16.225	0.100
492.000	26.656	0.100
492.100	10.486	0.100
492.200	2.150	0.100
492.300	24.668	0.100
492.400	3.281	0.100
492.500	28.076	0.100
492.600	29.728	0.100
492.700	13.848	0.100
492.800	19.332	0.100
492.900	42.174	0.100
493.000	16.938	0.100
493.100	18.771	0.100
493.200	29.468	0.100
493.300	26.561	0.100
493.400	18.383	0.100
493.500	12.083	0.100
493.600	14.525	0.100
493.700	37.306	0.100
493.800	16.187	0.100
493.900	26.945	0.100
494.000	15.225	0.100
494.100	20.062	0.100
494.200	24.815	0.100
494.300	38.239	0.100
494.400	15.130	0.100
494.500	17.487	0.100
494.600	36.104	0.100
494.700	42.505	0.100
494.800	10.722	0.100
494.900	24.572	0.100
495.000	10.819	0.100
495.100	33.234	0.100
495.200	39.303	0.100
495.300	29.018	0.100
495.400	10.461	0.100
495.500	42.754	0.100
495.600	35.949	0.100
495.700	29.606	0.100
495.800	30.191	0.100
495.900	23.787	0.100
496.000	47.270	0.100
496.100	35.267	0.100
496.200	43.419	0.100
496.300	26.016	0.100
496.400	40.213	0.100
496.500	39.576	0.100
496.600	25.994	0.100
496.700	35.091	0.100
496.800	29.995	0.100
496.900	44.951	0.100
497.000	32.013	0.100
497.100	23.873	0.100
497.200	64.362	0.100
497.300	13.423	0.100
497.400	32.855	0.100
497.500	34.046	0.100
497.600	39.937	0.100
497.700	32.220	0.100
497.800	24.783	0.100
497.900	27.600	0.100
498.000	45.731	0.100
498.100	30.848	0.100
498.200	44.508	0.100
498.300	19.750	0.100
498.400	40.473	0.100
498.500	29.900	0.100
498.600	27.316	0.100
498.700	27.880	0.100
498.800	32.061	0.100
498.900	46.753	0.100
499.000	34.442	0.100
499.100	41.508	0.100
499.200	37.963	0.100
499.300	36.712	0.100
499.400	34.534	0.100
499.500	26.340	0.100
499.600	48.765	0.100
499.700	8.552	0.100
499.800	44.678	0.100
499.900	41.143	0.100
500.000	35.220	0.100
500.100	20.737	0.100
500.200	41.531	0.100
500.300	36.740	0.100
500.400	30.208	0.100
500.500	38.013	0.100
500.600	17.105	0.100
500.700	20.926	0.100
500.800	47.679	0.100
500.900	38.074	0.100
501.000	18.402	0.100
501.100	33.059	0.100
501.200	35.147	0.100
501.300	38.915	0.100
501.400	36.563	0.100
501.500	12.513	0.100
501.600	59.027	0.100
501.700	39.462	0.100
501.800	34.970	0.100
501.900	42.140	0.100
502.000	44.835	0.100
502.100	35.367	0.100
502.200	24.881	0.100
502.300	28.661	0.100
502.400	41.068	0.100
502.500	38.675	0.100
502.600	39.732	0.100
502.700	18.099	0.100
502.800	41.291	0.100
502.900	17.301	0.100
503.000	36.784	0.100
503.100	24.294	0.100
503.200	30.938	0.100
503.300	49.428	0.100
503.400	21.391	0.100
503.500	46.524	0.100
503.600	25.804	0.100
503.700	34.490	0.100
503.800	50.473	0.100
503.900	26.505	0.100
504.000	40.273	0.100
504.100	32.346	0.100
504.200	27.315	0.100
504.300	26.299	0.100
504.400	37.983	0.100
504.500	38.380	0.100
504.600	31.866	0.100
504.700	17.338	0.100
504.800	30.379	0.100
504.900	39.171	0.100
505.000	24.701	0.100
505.100	56.425	0.100
505.200	35.057	0.100
505.300	38.197	0.100
505.400	37.039	0.100
505.500	46.691	0.100
505.600	35.671	0.100
505.700	25.792	0.100
505.800	23.958	0.100
505.900	35.767	0.100
506.000	34.946	0.100
506.100	53.218	0.100
506.200	40.468	0.100
506.300	17.374	0.100
506.400	40.017	0.100
506.500	40.458	0.100
506.600	47.576	0.100
506.700	27.014	0.100
506.800	42.228	0.100
506.900	31.874	0.100
507.000	39.111	0.100
507.100	27.415	0.100
507.200	37.566	0.100
507.300	49.014	0.100
507.400	23.393	0.100
507.500	48.857	0.100
507.600	30.935	0.100
507.700	50.176	0.100
507.800	40.560	0.100
507.900	30.955	0.100
508.000	49.762	0.100
508.100	33.386	0.100
508.200	23.432	0.100
508.300	44.960	0.100
508.400	35.592	0.100
508.500	24.674	0.100
508.600	38.084	0.100
508.700	41.057	0.100
508.800	32.008	0.100
508.900	46.615	0.100
509.000	30.237	0.100
509.100	44.745	0.100
509.200	30.761	0.100
509.300	38.939	0.100
509.400	30.544	0.100
509.500	34.249	0.100
509.600	34.637	0.100
509.700	38.108	0.100
509.800	34.160	0.100
509.900	48.251	0.100
510.000	36.383	0.100
510.100	34.377	0.100
510.200	33.689	0.100
510.300	30.654	0.100
510.400	37.351	0.100
510.500	46.093	0.100
510.600	49.386	0.100
510.700	38.137	0.100
510.800	43.954	0.100
510.900	42.856	0.100
511.000	51.859	0.100
511.100	31.089	0.100
511.200	25.319	0.100
511.300	57.576	0.100
511.400	30.030	0.100
511.500	43.769	0.100
511.600	38.732	0.100
511.700	30.638	0.100
511.800	32.385	0.100
511.900	20.627	0.100
512.000	32.112	0.100
512.100	56.849	0.100
512.200	48.969	0.100
512.300	40.888	0.100
512.400	33.436	0.100
512.500	33.447	0.100
512.600	48.296	0.100
512.700	25.824	0.100
512.800	27.510	0.100
512.900	38.202	0.100
513.000	59.427	0.100
513.100	44.326	0.100
513.200	41.160	0.100
513.300	36.184	0.100
513.400	43.256	0.100
513.500	38.345	0.100
513.600	37.992	0.100
513.700	19.324	0.100
513.800	41.151	0.100
513.900	38.446	0.100
514.000	40.325	0.100
514.100	33.824	0.100
514.200	34.621	0.100
514.300	25.474	0.100
514.400	18.456	0.100
514.500	50.471	0.100
514.600	37.830	0.100
514.700	48.322	0.100
514.800	39.331	0.100
514.900	18.254	0.100
515.000	37.647	0.100
515.100	33.432	0.100
515.200	35.142	0.100
515.300	38.830	0.100
515.400	43.515	0.100
515.500	34.050	0.100
515.600	25.288	0.100
515.700	42.019	0.100
515.800	42.196	0.100
515.900	36.782	0.100
516.000	29.014	0.100
516.100	38.398	0.100
516.200	43.226	0.100
516.300	45.025	0.100
516.400	33.832	0.100
516.500	40.931	0.100
516.600	37.245	0.100
516.700	29.641	0.100
516.800	21.016	0.100
516.900	37.122	0.100
517.000	46.976	0.100
517.100	28.680	0.100
517.200	51.681	0.100
517.300	35.558	0.100
517.400	35.993	0.100
517.500	30.793	0.100
517.600	28.955	0.100
517.700	34.198	0.100
517.800	34.696	0.100
517.900	44.254	0.100
518.000	40.532	0.100
518.100	40.252	0.100
518.200	31.146	0.100
518.300	47.153	0.100
518.400	44.289	0.100
518.500	32.546	0.100
518.600	31.258	0.100
518.700	46.267	0.100
518.800	40.711	0.100
518.900	34.868	0.100
519.000	28.758	0.100
519.100	53.339	0.100
519.200	42.010	0.100
519.300	37.823	0.100
519.400	45.944	0.100
519.500	25.437	0.100
519.600	36.318	0.100
519.700	27.825	0.100
519.800	26.929	0.100
519.900	31.664	0.100
520.000	31.345	0.100
520.100	39.694	0.100
520.200	43.017	0.100
520.300	40.360	0.100
520.400	34.590	0.100
520.500	51.916	0.100
520.600	51.955	0.100
520.700	48.515	0.100
520.800	28.351	0.100
520.900	30.452	0.100
521.000	40.094	0.100
521.100	42.158	0.100
521.200	40.238	0.100
521.300	35.942	0.100
521.400	30.355	0.100
521.500	34.594	0.100
521.600	39.733	0.100
521.700	35.598	0.100
521.800	16.544	0.100
521.900	38.337	0.100
522.000	34.454	0.100
522.100	44.628	0.100
522.200	39.043	0.100
522.300	14.818	0.100
522.400	33.123	0.100
522.500	31.397	0.100
522.600	41.526	0.100
522.700	32.299	0.100
522.800	28.433	0.100
522.900	46.059	0.100
523.000	47.081	0.100
523.100	54.712	0.100
523.200	41.829	0.100
523.300	28.436	0.100
523.400	31.365	0.100
523.500	42.240	0.100
523.600	51.169	0.100
523.700	26.794	0.100
523.800	35.737	0.100
523.900	48.000	0.100
524.000	26.864	0.100
524.100	25.483	0.100
524.200	37.843	0.100
524.300	42.682	0.100
524.400	33.055	0.100
524.500	56.414	0.100
524.600	31.601	0.100
524.700	34.003	0.100
524.800	40.269	0.100
524.900	22.599	0.100
525.000	37.820	0.100
525.100	50.288	0.100
525.200	50.013	0.100
525.300	33.508	0.100
525.400	30.955	0.100
525.500	31.168	0.100
525.600	37.060	0.100
525.700	31.042	0.100
525.800	42.633	0.100
525.900	44.313	0.100
526.000	33.401	0.100
526.100	29.887	0.100
526.200	49.665	0.100
526.300	32.965	0.100
526.400	39.085	0.100
526.500	43.897	0.100
526.600	30.422	0.100
526.700	55.439	0.100
526.800	34.046	0.100
526.900	29.911	0.100
527.000	37.504	0.100
527.100	58.052	0.100
527.200	35.964	0.100
527.300	40.893	0.100
527.400	25.596	0.100
527.500	55.519	0.100
527.600	20.556	0.100
527.700	32.175	0.100
527.800	38.970	0.100
527.900	31.508	0.100
528.000	33.034	0.100
528.100	39.711	0.099
528.200	36.655	0.099
528.300	37.830	0.099
528.400	52.624	0.099
528.500	40.608	0.099
528.600	44.140	0.099
528.700	44.959	0.099
528.800	37.702	0.099
528.900	46.067	0.099
529.000	25.498	0.099
529.100	55.321	0.099
529.200	43.089	0.099
529.300	30.965	0.099
529.400	32.573	0.099
529.500	43.616	0.099
529.600	57.523	0.099
529.700	32.983	0.099
529.800	29.801	0.099
529.900	25.115	0.099
530.000	53.277	0.099
530.100	52.966	0.099
530.200	34.189	0.099
530.300	34.744	0.099
530.400	31.661	0.099
530.500	33.178	0.099
530.600	46.651	0.099
530.700	34.065	0.099
530.800	31.718	0.099
530.900	37.351	0.099
531.000	35.457	0.099
531.100	40.376	0.099
531.200	45.834	0.099
531.300	40.188	0.099
531.400	35.659	0.099
531.500	40.315	0.099
531.600	31.145	0.099
531.700	51.175	0.099
531.800	42.684	0.099
531.900	24.439	0.099
532.000	46.561	0.099
532.100	20.338	0.099
532.200	34.476	0.099
532.300	44.332	0.099
532.400	27.514	0.099
532.500	35.273	0.099
532.600	50.160	0.099
532.700	44.775	0.099
532.800	35.378	0.099
532.900	45.393	0.099
533.000	29.577	0.099
533.100	40.953	0.099
533.200	34.317	0.099
533.300	46.932	0.099
533.400	32.620	0.099
533.500	28.213	0.099
533.600	28.712	0.099
533.700	40.231	0.099
533.800	36.776	0.099
533.900	36.106	0.099
534.000	62.195	0.099
534.100	36.710	0.099
534.200	36.043	0.099
534.300	42.691	0.099
534.400	25.856	0.099
534.500	24.561	0.099
534.600	39.040	0.099
534.700	65.075	0.099
534.800	28.455	0.099
534.900	27.121	0.099
535.000	56.288	0.099
535.100	30.464	0.099
535.200	44.479	0.099
535.300	33.388	0.099
535.400	24.019	0.099
535.500	29.416	0.099
535.600	48.903	0.099
535.700	57.320	0.099
535.800	41.066	0.099
535.900	48.982	0.099
536.000	40.037	0.099
536.100	32.360	0.099
536.200	48.013	0.099
536.300	55.325	0.099
536.400	42.094	0.099
536.500	39.655	0.099
536.600	43.052	0.099
536.700	43.941	0.099
536.800	49.700	0.099
536.900	20.224	0.099
537.000	41.370	0.099
537.100	53.373	0.099
537.200	41.030	0.099
537.300	27.381	0.099
537.400	30.704	0.099
537.500	36.445	0.099
537.600	28.262	0.099
537.700	42.386	0.099
537.800	46.573	0.099
537.900	38.384	0.099
538.000	43.625	0.099
538.100	34.518	0.099
538.200	35.969	0.099
538.300	40.885	0.099
538.400	46.581	0.099
538.500	36.439	0.099
538.600	16.032	0.099
538.700	35.246	0.099
538.800	43.246	0.099
538.900	33.274	0.099
539.000	36.585	0.099
539.100	50.959	0.099
539.200	22.723	0.099
539.300	23.377	0.099
539.400	48.567	0.099
539.500	31.647	0.099
539.600	39.355	0.099
539.700	47.992	0.099
539.800	40.772	0.099
539.900	31.054	0.099
540.000	37.966	0.099
540.100	44.475	0.099
540.200	27.932	0.099
540.300	26.933	0.099
540.400	43.967	0.099
540.500	30.179	0.099
540.600	45.381	0.099
540.700	26.891	0.099
540.800	41.395	0.099
540.900	31.656	0.099
541.000	29.390	0.099
541.100	24.579	0.099
541.200	30.666	0.099
541.300	29.520	0.099
541.400	25.132	0.099
541.500	20.871	0.099
541.600	4.694	0.099
541.700	10.839	0.099
541.800	5.545	0.099
541.900	6.801	0.099
542.000	0.224	0.099
542.100	14.203	0.099
542.200	28.280	0.099
542.300	23.117	0.099
542.400	3.840	0.099
542.500	-0.714	0.099
542.600	11.530	0.099
542.700	0.902	0.099
542.800	0.246	0.099
542.900	0.378	0.099
543.000	17.844	0.099
543.100	4.348	0.099
543.200	7.456	0.099
543.300	12.702	0.099
543.400	0.506	0.099
543.500	0.733	0.099
543.600	8.142	0.099
543.700	-10.509	0.099
543.800	11.955	0.099
543.900	11.260	0.099
544.000	-6.842	0.099
544.100	1.084	0.099
544.200	6.400	0.099
544.300	-2.890	0.099
544.400	0.493	0.099
544.500	5.367	0.099
544.600	-2.397	0.099
544.700	3.183	0.099
544.800	17.113	0.099
544.900	-21.800	0.099
545.000	18.150	0.099
545.100	-12.675	0.099
545.200	-4.405	0.099
545.300	3.548	0.099
545.400	4.171	0.099
545.500	0.263	0.099
545.600	-6.760	0.099
545.700	-9.719	0.099
545.800	15.987	0.099
545.900	7.907	0.099
546.000	-5.457	0.099
546.100	-1.352	0.099
546.200	-9.292	0.099
546.300	0.026	0.099
546.400	-10.173	0.099
546.500	-10.839	0.099
546.600	4.021	0.099
546.700	2.153	0.099
546.800	-8.572	0.099
546.900	-4.998	0.099
547.000	6.307	0.099
547.100	6.488	0.099
547.200	9.937	0.099
547.300	0.427	0.099
547.400	-3.368	0.099
547.500	7.240	0.100
547.600	3.658	0.099
547.700	-4.490	0.100
547.800	-6.807	0.100
547.900	-7.131	0.100
548.000	10.439	0.100
548.100	-3.429	0.100
548.200	-1.056	0.100
548.300	-3.680	0.100
548.400	5.012	0.100
548.500	-4.900	0.100
548.600	-2.211	0.100
548.700	-15.541	0.100
548.800	11.744	0.100
548.900	-1.992	0.100
549.000	-7.080	0.100
549.100	-17.747	0.100
549.200	-27.105	0.100
549.300	-12.438	0.100
549.400	7.338	0.100
549.500	2.838	0.100
549.600	-10.111	0.100
549.700	5.399	0.100
549.800	-1.848	0.100
549.900	1.483	0.100
550.000	1.498	0.100
550.100	-14.562	0.100
550.200	13.797	0.100
550.300	-9.073	0.100
550.400	-8.208	0.100
550.500	-1.210	0.100
550.600	7.261	0.100
550.700	5.636	0.100
550.800	6.684	0.100
550.900	-9.231	0.100
551.000	-10.752	0.100
551.100	-10.624	0.100
551.200	-11.003	0.100
551.300	12.046	0.100
551.400	-1.524	0.100
551.500	-8.723	0.100
551.600	-14.082	0.100
551.700	-8.424	0.100
551.800	2.806	0.100
551.900	-17.983	0.100
552.000	5.012	0.100
552.100	-10.371	0.100
552.200	1.451	0.100
552.300	-2.482	0.100
552.400	3.565	0.100
552.500	12.746	0.100
552.600	-2.045	0.100
552.700	-12.461	0.100
552.800	13.510	0.100
552.900	-4.446	0.100
553.000	-9.127	0.100
553.100	-2.991	0.100
553.200	-5.057	0.100
553.300	-2.726	0.100
553.400	7.045	0.100
553.500	-7.395	0.100
553.600	2.448	0.100
553.700	-11.176	0.100
553.800	-5.068	0.100
553.900	8.325	0.100
554.000	0.627	0.100
554.100	-13.626	0.100
554.200	-0.103	0.100
554.300	-0.840	0.100
554.400	0.748	0.100
554.500	-11.081	0.100
554.600	-14.664	0.100
554.700	2.715	0.100
554.800	-9.263	0.100
554.900	-14.337	0.100
555.000	-7.895	0.100
555.100	-15.338	0.100
555.200	-2.548	0.100
555.300	-10.048	0.100
555.400	-8.638	0.100
555.500	-1.303	0.100
555.600	-8.608	0.100
555.700	-13.042	0.100
555.800	-10.559	0.100
555.900	-8.205	0.100
556.000	-11.205	0.100
556.100	-1.691	0.100
556.200	-3.423	0.100
556.300	-25.370	0.100
556.400	10.797	0.100
556.500	-11.856	0.100
556.600	-8.976	0.100
556.700	-8.889	0.100
556.800	-13.621	0.100
556.900	1.381	0.100
557.000	-8.196	0.100
557.100	-3.771	0.100
557.200	-6.502	0.100
557.300	-14.198	0.100
557.400	-30.309	0.100
557.500	8.816	0.100
557.600	-31.165	0.100
557.700	10.796	0.100
557.800	-2.743	0.100
557.900	-17.690	0.100
558.000	-8.505	0.100
558.100	-11.407	0.100
558.200	-12.304	0.100
558.300	-4.671	0.100
558.400	-10.226	0.100
558.500	-18.726	0.100
558.600	-17.374	0.100
558.700	4.501	0.100
558.800	-15.754	0.100
558.900	1.657	0.100
559.000	7.784	0.100
559.100	2.215	0.100
559.200	-10.941	0.100
559.300	0.106	0.100
559.400	-14.334	0.100
559.500	-17.932	0.100
559.600	1.624	0.100
559.700	5.071	0.100
559.800	-26.034	0.100
559.900	-10.427	0.100
560.000	-17.488	0.100
560.100	0.029	0.100
560.200	-15.539	0.100
560.300	-8.988	0.100
560.400	-6.330	0.100
560.500	-5.888	0.100
560.600	-20.719	0.100
560.700	-1.985	0.100
560.800	-19.897	0.100
560.900	-3.810	0.100
561.000	-3.126	0.100
561.100	-24.679	0.100
561.200	-15.672	0.100
561.300	14.825	0.100
561.400	-22.123	0.100
561.500	-4.538	0.100
561.600	-19.632	0.100
561.700	-0.741	0.100
561.800	-8.332	0.100
561.900	-9.500	0.100
562.000	-9.661	0.100
562.100	-28.976	0.100
562.200	5.916	0.100
562.300	0.358	0.100
562.400	-14.585	0.100
562.500	-9.354	0.100
562.600	-8.523	0.100
562.700	-1.385	0.100
562.800	-16.177	0.100
562.900	-8.578	0.100
563.000	0.875	0.100
563.100	-4.699	0.100
563.200	-13.967	0.100
563.300	-3.894	0.100
563.400	-20.170	0.100
563.500	-18.557	0.100
563.600	-28.609	0.100
563.700	-6.861	0.100
563.800	-12.312	0.100
563.900	-13.586	0.100
564.000	-32.879	0.100
564.100	-22.261	0.100
564.200	-20.524	0.100
564.300	2.452	0.100
564.400	-14.507	0.100
564.500	-24.482	0.100
564.600	-13.615	0.100
564.700	-9.635	0.100
564.800	-18.568	0.100
564.900	15.865	0.100
565.000	-22.384	0.100
565.100	-11.100	0.100
565.200	-15.545	0.100
565.300	-16.775	0.100
565.400	-10.413	0.100
565.500	-11.542	0.100
565.600	-26.316	0.100
565.700	-2.265	0.100
565.800	-6.932	0.100
565.900	-22.078	0.100
566.000	-8.380	0.100
566.100	-5.016	0.100
566.200	-19.322	0.100
566.300	-25.668	0.100
566.400	-11.645	0.100
566.500	7.165	0.100
566.600	-20.108	0.100
566.700	-15.731	0.100
566.800	-11.027	0.100
566.900	-27.192	0.100
567.000	-10.577	0.100
567.100	-6.413	0.100
567.200	-16.962	0.100
567.300	-12.652	0.100
567.400	-19.931	0.100
567.500	-5.595	0.100
567.600	-14.741	0.100
567.700	-25.882	0.100
567.800	-4.092	0.100
567.900	-13.994	0.100
568.000	-15.085	0.100
568.100	-7.516	0.100
568.200	-5.570	0.100
568.300	-19.882	0.100
568.400	-12.560	0.100
568.500	-19.499	0.100
568.600	-11.196	0.100
568.700	-17.460	0.100
568.800	-24.636	0.100
568.900	0.499	0.100
569.000	-14.984	0.100
569.100	-17.586	0.100
569.200	-21.951	0.100
569.300	5.128	0.100
569.400	-14.046	0.100
569.500	-25.541	0.100
569.600	-6.536	0.100
569.700	-37.573	0.100
569.800	-10.168	0.100
569.900	-15.506	0.100
570.000	-16.616	0.100
570.100	-13.486	0.100
570.200	-21.549	0.100
570.300	-5.733	0.100
570.400	-28.595	0.100
570.500	-8.951	0.100
570.600	-35.429	0.100
570.700	-33.575	0.100
570.800	-13.233	0.100
570.900	-13.235	0.100
571.000	-10.720	0.100
571.100	-9.937	0.100
571.200	-27.309	0.100
571.300	-16.820	0.100
571.400	-1.195	0.100
571.500	-13.124	0.100
571.600	-34.343	0.100
571.700	-45.990	0.100
571.800	-16.283	0.100
571.900	4.212	0.100
572.000	-4.228	0.100
572.100	0.905	0.100
572.200	-27.290	0.100
572.300	-34.204	0.100
572.400	-16.431	0.100
572.500	-20.043	0.100
572.600	2.466	0.100
572.700	-23.791	0.100
572.800	-8.040	0.100
572.900	-0.913	0.100
573.000	-38.469	0.100
573.100	-0.047	0.100
573.200	-8.746	0.100
573.300	-18.293	0.100
573.400	-19.196	0.100
573.500	-14.351	0.100
573.600	-24.514	0.100
573.700	-17.533	0.100
573.800	-21.440	0.100
573.900	-3.831	0.100
574.000	-4.134	0.100
574.100	-18.856	0.100
574.200	-31.837	0.100
574.300	-33.086	0.100
574.400	-18.055	0.100
574.500	-14.167	0.100
574.600	-20.491	0.100
574.700	-22.427	0.100
574.800	-9.603	0.100
574.900	-25.596	0.100
575.000	-11.722	0.100
575.100	-18.274	0.100
575.200	-27.363	0.100
575.300	-21.989	0.100
575.400	-17.786	0.100
575.500	-15.792	0.100
575.600	-13.699	0.100
575.700	-18.059	0.100
575.800	-10.522	0.100
575.900	-0.747	0.100
576.000	-22.993	0.100
576.100	-29.346	0.100
576.200	-5.862	0.100
576.300	-15.605	0.100
576.400	-31.914	0.100
576.500	-0.908	0.100
576.600	0.300	0.100
576.700	-27.015	0.100
576.800	-9.790	0.100
576.900	-22.986	0.100
577.000	-16.862	0.100
577.100	-17.334	0.100
577.200	-6.326	0.100
577.300	-6.827	0.100
577.400	-26.138	0.100
577.500	-23.280	0.100
577.600	5.949	0.100
577.700	-5.324	0.100
577.800	-27.670	0.100
577.900	-13.136	0.100
578.000	-7.461	0.100
578.100	-14.212	0.100
578.200	-21.573	0.100
578.300	-15.310	0.100
578.400	-19.607	0.100
578.500	-20.554	0.100
578.600	-17.316	0.100
578.700	-30.554	0.100
578.800	-19.439	0.100
578.900	-11.986	0.100
579.000	-21.402	0.100
579.100	-11.136	0.100
579.200	-9.382	0.100
579.300	-12.482	0.100
579.400	-18.280	0.100
579.500	-4.998	0.100
579.600	-38.983	0.100
579.700	-27.386	0.100
579.800	-16.157	0.100
579.900	-17.167	0.100
580.000	-32.710	0.100
580.100	-12.929	0.100
580.200	-13.068	0.100
580.300	-17.906	0.100
580.400	-31.263	0.100
580.500	-19.930	0.100
580.600	-26.886	0.100
580.700	-31.282	0.100
580.800	3.945	0.100
580.900	-14.436	0.100
581.000	-8.254	0.100
581.100	-8.837	0.100
581.200	-19.584	0.100
581.300	-30.013	0.100
581.400	-11.071	0.100
581.500	-15.095	0.100
581.600	-19.615	0.100
581.700	-26.553	0.100
581.800	-20.903	0.100
581.900	-30.861	0.100
582.000	-39.234	0.100
582.100	-14.633	0.100
582.200	-4.291	0.100
582.300	-28.520	0.100
582.400	-19.500	0.100
582.500	-8.511	0.100
582.600	-2.834	0.100
582.700	-16.029	0.100
582.800	-29.183	0.100
582.900	-11.625	0.100
583.000	-13.721	0.100
583.100	-14.877	0.100
583.200	-14.812	0.100
583.300	-22.039	0.100
583.400	-34.570	0.100
583.500	-26.331	0.100
583.600	13.497	0.100
583.700	-26.003	0.100
583.800	-21.073	0.100
583.900	-8.084	0.100
584.000	-10.728	0.100
584.100	-16.773	0.100
584.200	-33.020	0.100
584.300	-8.693	0.100
584.400	-9.019	0.100
584.500	-20.164	0.100
584.600	-9.514	0.100
584.700	-7.639	0.100
584.800	-26.068	0.100
584.900	-20.403	0.100
585.000	-8.199	0.100
585.100	-19.383	0.100
585.200	-15.773	0.100
585.300	-20.560	0.100
585.400	-22.943	0.100
585.500	-11.347	0.100
585.600	-29.042	0.100
585.700	-3.254	0.100
585.800	-15.041	0.100
585.900	-38.338	0.100
586.000	-18.702	0.100
586.100	-6.632	0.100
586.200	-3.301	0.100
586.300	-12.197	0.100
586.400	-25.342	0.100
586.500	-29.439	0.100
586.600	-19.223	0.100
586.700	-24.082	0.100
586.800	-11.873	0.100
586.900	-3.667	0.100
587.000	-40.574	0.100
587.100	-26.333	0.100
587.200	-18.592	0.100
587.300	-26.787	0.100
587.400	-14.291	0.100
587.500	-1.853	0.100
587.600	-18.390	0.100
587.700	-15.286	0.100
587.800	-14.229	0.100
587.900	-14.221	0.100
588.000	-15.930	0.100
588.100	-22.044	0.100
588.200	-23.497	0.100
588.300	-27.305	0.100
588.400	-5.806	0.100
588.500	-24.362	0.100
588.600	-19.208	0.100
588.700	-15.723	0.100
588.800	-33.603	0.100
588.900	-12.183	0.100
589.000	-22.828	0.100
589.100	-22.010	0.100
589.200	-10.887	0.100
589.300	-24.149	0.100
589.400	-25.644	0.100
589.500	-14.280	0.100
589.600	-23.156	0.100
589.700	-26.655	0.100
589.800	-21.222	0.100
589.900	-13.727	0.100
590.000	-24.621	0.100
590.100	-9.456	0.100
590.200	-16.371	0.100
590.300	-12.131	0.100
590.400	-6.646	0.100
590.500	-18.177	0.100
590.600	-9.802	0.100
590.700	-14.737	0.100
590.800	-11.310	0.100
590.900	-28.820	0.100
591.000	-5.128	0.100
591.100	-19.375	0.100
591.200	-28.712	0.100
591.300	-28.946	0.100
591.400	-4.037	0.100
591.500	-22.451	0.100
591.600	-13.014	0.100
591.700	-13.077	0.100
591.800	-22.426	0.100
591.900	-21.504	0.100
592.000	8.157	0.100
592.100	-21.011	0.100
592.200	-18.060	0.100
592.300	-13.700	0.100
592.400	-16.578	0.100
592.500	-5.216	0.100
592.600	-12.568	0.100
592.700	-22.364	0.100
592.800	-32.149	0.100
592.900	-25.817	0.100
593.000	-15.980	0.100
593.100	-12.862	0.100
593.200	-10.068	0.100
593.300	-19.994	0.100
593.400	-11.647	0.100
593.500	-13.727	0.100
593.600	-11.186	0.100
593.700	-18.921	0.100
593.800	-25.822	0.100
593.900	-17.625	0.100
594.000	-8.829	0.100
594.100	-6.453	0.100
594.200	-23.637	0.100
594.300	-40.581	0.100
594.400	-16.728	0.100
594.500	-24.425	0.100
594.600	0.136	0.100
594.700	-15.587	0.100
594.800	-13.699	0.100
594.900	-23.991	0.100
595.000	-37.362	0.100
595.100	-30.272	0.100
595.200	-14.108	0.100
595.300	-15.522	0.100
595.400	-25.844	0.100
595.500	-2.885	0.100
595.600	-36.535	0.100
595.700	-21.297	0.100
595.800	2.281	0.100
595.900	-5.352	0.100
596.000	-29.411	0.100
596.100	-14.550	0.100
596.200	-11.956	0.100
596.300	-13.076	0.100
596.400	-8.251	0.100
596.500	-12.382	0.100
596.600	-13.222	0.100
596.700	-17.385	0.100
596.800	-42.790	0.100
596.900	-23.180	0.100
597.000	-11.698	0.100
597.100	-12.314	0.100
597.200	-6.496	0.100
597.300	-17.133	0.100
597.400	-35.012	0.100
597.500	-9.091	0.100
597.600	-10.096	0.100
597.700	-19.976	0.100
597.800	-14.289	0.100
597.900	-15.617	0.100
598.000	-25.679	0.100
598.100	3.307	0.100
598.200	-17.053	0.100
598.300	-9.741	0.100
598.400	-17.741	0.100
598.500	-11.905	0.100
598.600	-24.164	0.100
598.700	-8.137	0.100
598.800	-25.237	0.100
598.900	-11.121	0.100
599.000	-3.491	0.100
599.100	-18.446	0.100
599.200	-12.496	0.100
599.300	-32.065	0.100
599.400	-8.462	0.100
599.500	-24.085	0.100
599.600	-18.545	0.100
599.700	-13.927	0.100
599.800	1.874	0.100
599.900	-31.099	0.100
600.000	-6.682	0.100
600.100	-14.387	0.100
600.200	-9.843	0.100
600.300	-14.511	0.100
600.400	-33.770	0.100
600.500	-16.030	0.100
600.600	3.620	0.100
600.700	-36.672	0.100
600.800	-15.571	0.100
600.900	-1.894	0.100
601.000	-34.917	0.100
601.100	-3.933	0.100
601.200	-3.326	0.100
601.300	-23.378	0.100
601.400	-17.089	0.100
601.500	-10.241	0.100
601.600	-16.546	0.100
601.700	-20.944	0.100
601.800	-18.044	0.099
601.900	-15.006	0.100
602.000	-23.751	0.100
602.100	-14.588	0.100
602.200	-0.350	0.100
602.300	-18.693	0.100
602.400	-19.418	0.100
602.500	-21.027	0.100
602.600	-19.263	0.100
602.700	-12.029	0.100
602.800	-2.801	0.100
602.900	-27.417	0.100
603.000	-24.029	0.100
603.100	-24.594	0.100
603.200	-23.873	0.100
603.300	0.704	0.100
603.400	-6.378	0.100
603.500	-9.324	0.100
603.600	-15.364	0.100
603.700	-33.578	0.100
603.800	-15.478	0.100
603.900	-18.119	0.100
604.000	-7.156	0.100
604.100	-18.012	0.100
604.200	-17.114	0.100
604.300	-31.519	0.100
604.400	-5.863	0.100
604.500	-27.703	0.099
604.600	-14.507	0.100
604.700	-16.945	0.100
604.800	-9.925	0.100
604.900	-19.158	0.100
605.000	-32.493	0.100
605.100	-3.034	0.100
605.200	-19.281	0.100
605.300	-35.928	0.100
605.400	-18.066	0.100
605.500	-14.775	0.100
605.600	-17.742	0.100
605.700	-33.183	0.100
605.800	-26.250	0.100
605.900	-2.230	0.100
606.000	-17.908	0.100
606.100	-9.153	0.100
606.200	-26.093	0.100
606.300	-16.526	0.100
606.400	-6.342	0.100
606.500	-19.887	0.100
606.600	-29.153	0.100
606.700	-12.587	0.099
606.800	-10.482	0.100
606.900	-17.259	0.100
607.000	-7.310	0.100
607.100	-20.874	0.100
607.200	-8.873	0.100
607.300	-16.000	0.100
607.400	-13.861	0.100
607.500	-30.354	0.100
607.600	-19.945	0.100
607.700	-8.687	0.100
607.800	-22.633	0.100
607.900	-12.755	0.100
608.000	-16.579	0.100
608.100	-4.381	0.100
608.200	-14.451	0.100
608.300	-17.366	0.100
608.400	-21.253	0.100
608.500	-8.076	0.100
608.600	-10.488	0.100
608.700	-17.417	0.100
608.800	-21.911	0.100
608.900	-8.856	0.100
609.000	-34.415	0.100
609.100	6.688	0.100
609.200	-3.316	0.100
609.300	-29.009	0.100
609.400	-21.426	0.100
609.500	-6.392	0.100
609.600	-2.374	0.100
609.700	-28.275	0.100
609.800	-13.215	0.100
609.900	-5.949	0.100
610.000	-14.768	0.100
610.100	-20.633	0.100
610.200	-7.848	0.100
610.300	1.824	0.100
610.400	-20.652	0.100
610.500	-18.430	0.100
610.600	-18.975	0.100
610.700	-20.332	0.100
610.800	-11.117	0.100
610.900	-18.833	0.100
611.000	-10.681	0.100
611.100	-15.684	0.100
611.200	-23.391	0.100
611.300	-23.354	0.100
611.400	-7.093	0.100
611.500	-24.623	0.100
611.600	-7.276	0.100
611.700	-12.815	0.100
611.800	-23.412	0.100
611.900	-3.503	0.100
612.000	-37.935	0.100
612.100	1.163	0.100
612.200	9.963	0.100
612.300	-13.583	0.100
612.400	-23.433	0.100
612.500	-20.698	0.100
612.600	-24.100	0.100
612.700	-16.098	0.100
612.800	2.348	0.100
612.900	-22.923	0.100
613.000	-12.724	0.100
613.100	-10.951	0.100
613.200	-26.519	0.100
613.300	-33.235	0.099
613.400	-24.121	0.100
613.500	-14.336	0.100
613.600	-17.616	0.100
613.700	-15.176	0.100
613.800	-14.800	0.100
613.900	-12.736	0.100
614.000	-5.526	0.100
614.100	-25.174	0.100
614.200	-27.312	0.100
614.300	-17.828	0.100
614.400	-13.530	0.100
614.500	-8.470	0.100
614.600	-19.484	0.100
614.700	-16.367	0.100
614.800	-8.200	0.100
614.900	-17.988	0.100
615.000	-17.003	0.100
615.100	2.023	0.100
615.200	-24.937	0.100
615.300	-21.907	0.100
615.400	-11.207	0.100
615.500	-3.761	0.100
615.600	-16.482	0.100
615.700	-10.324	0.100
615.800	-16.221	0.100
615.900	-14.398	0.100
616.000	-14.947	0.100
616.100	-12.719	0.100
616.200	-11.901	0.100
616.300	-20.200	0.100
616.400	-23.394	0.100
616.500	-13.581	0.100
616.600	-10.660	0.100
616.700	-25.439	0.100
616.800	-15.791	0.100
616.900	-26.098	0.100
617.000	-15.648	0.100
617.100	-18.533	0.100
617.200	-12.123	0.100
617.300	-4.754	0.100
617.400	-10.169	0.100
617.500	-5.475	0.100
617.600	-9.335	0.100
617.700	-12.781	0.100
617.800	-15.844	0.100
617.900	-3.354	0.100
618.000	-4.594	0.100
618.100	-7.873	0.100
618.200	-27.736	0.100
618.300	-28.985	0.100
618.400	-23.659	0.100
618.500	-13.402	0.100
618.600	-9.647	0.100
618.700	-16.730	0.100
618.800	-11.760	0.100
618.900	-24.517	0.100
619.000	-30.159	0.100
619.100	-16.117	0.100
619.200	-10.320	0.100
619.300	-11.485	0.100
619.400	-36.007	0.100
619.500	-9.709	0.100
619.600	-9.767	0.100
619.700	-19.467	0.100
619.800	-11.582	0.100
619.900	-1.619	0.100
620.000	-14.890	0.100
620.100	-10.707	0.100
620.200	-27.375	0.100
620.300	-14.467	0.100
620.400	-12.771	0.100
620.500	-15.378	0.100
620.600	-14.326	0.099
620.700	-27.722	0.100
620.800	-22.184	0.100
620.900	2.153	0.100
621.000	-13.044	0.100
621.100	-25.767	0.100
621.200	1.498	0.100
621.300	-11.169	0.100
621.400	-9.314	0.100
621.500	-26.386	0.100
621.600	-5.416	0.100
621.700	-20.764	0.100
621.800	-18.111	0.100
621.900	7.212	0.100
622.000	-0.996	0.100
622.100	-23.558	0.100
622.200	-2.881	0.100
622.300	-12.350	0.100
622.400	-3.774	0.100
622.500	-27.087	0.100
622.600	-21.427	0.100
622.700	-23.840	0.100
622.800	-21.670	0.100
622.900	-21.406	0.100
623.000	-9.767	0.100
623.100	-16.531	0.100
623.200	-34.063	0.100
623.300	1.300	0.100
623.400	-23.833	0.100
623.500	-4.846	0.100
623.600	-3.212	0.100
623.700	-15.206	0.100
623.800	-20.531	0.100
623.900	-27.239	0.100
624.000	-22.447	0.100
624.100	-15.806	0.100
624.200	-8.821	0.100
624.300	-16.268	0.100
624.400	-16.465	0.100
624.500	-14.121	0.100
624.600	-20.354	0.100
624.700	-10.678	0.100
624.800	-24.690	0.100
624.900	-15.685	0.100
625.000	-13.900	0.100
625.100	-14.995	0.100
625.200	-9.054	0.100
625.300	-2.062	0.100
625.400	-19.960	0.100
625.500	-13.291	0.100
625.600	-15.600	0.100
625.700	-7.695	0.100
625.800	-21.834	0.100
625.900	-36.222	0.100
626.000	-25.711	0.100
626.100	-12.234	0.100
626.200	-20.352	0.100
626.300	-22.956	0.100
626.400	-9.981	0.100
626.500	-8.987	0.100
626.600	-15.392	0.100
626.700	-21.213	0.100
626.800	-14.896	0.100
626.900	-20.123	0.100
627.000	-18.345	0.100
627.100	-7.894	0.100
627.200	-13.605	0.100
627.300	-15.609	0.100
627.400	-18.795	0.100
627.500	-3.793	0.100
627.600	-16.348	0.100
627.700	-41.108	0.100
627.800	-1.035	0.100
627.900	-13.642	0.100
628.000	-8.831	0.100
628.100	-15.647	0.100
628.200	-7.908	0.100
628.300	-12.468	0.100
628.400	-16.153	0.100
628.500	-8.423	0.100
628.600	-10.184	0.100
628.700	-0.634	0.100
628.800	-17.102	0.100
628.900	-25.333	0.100
629.000	-33.392	0.100
629.100	-14.680	0.100
629.200	-1.311	0.100
629.300	-9.692	0.100
629.400	-18.395	0.100
629.500	-18.687	0.100
629.600	-22.189	0.100
629.700	-11.398	0.100
629.800	-15.284	0.100
629.900	-16.053	0.100
630.000	-39.486	0.100
630.100	-6.697	0.100
630.200	-10.625	0.100
630.300	-24.204	0.100
630.400	-5.695	0.100
630.500	-16.214	0.100
630.600	-28.664	0.100
630.700	-13.682	0.100
630.800	-16.518	0.100
630.900	3.719	0.100
631.000	-4.261	0.100
631.100	10.136	0.100
631.200	-3.456	0.100
631.300	-1.788	0.100
631.400	5.735	0.100
631.500	-10.506	0.100
631.600	22.718	0.100
631.700	-1.940	0.100
631.800	9.169	0.100
631.900	27.720	0.100
632.000	6.449	0.100
632.100	17.366	0.100
632.200	-3.078	0.100
632.300	11.365	0.100
632.400	12.503	0.100
632.500	18.737	0.100
632.600	6.122	0.100
632.700	38.630	0.100
632.800	-1.395	0.100
632.900	5.507	0.100
633.000	-10.182	0.100
633.100	28.011	0.100
633.200	4.105	0.100
633.300	-3.434	0.100
633.400	6.708	0.100
633.500	21.573	0.100
633.600	10.192	0.100
633.700	19.602	0.100
633.800	3.983	0.100
633.900	-0.600	0.100
634.000	20.572	0.100
634.100	6.840	0.100
634.200	2.375	0.100
634.300	24.814	0.100
634.400	11.191	0.100
634.500	9.215	0.100
634.600	25.749	0.100
634.700	6.536	0.100
634.800	9.093	0.100
634.900	21.826	0.100
635.000	14.378	0.100
635.100	8.091	0.100
635.200	-2.961	0.100
635.300	-2.526	0.100
635.400	16.626	0.100
635.500	3.852	0.100
635.600	16.916	0.100
635.700	2.408	0.100
635.800	15.185	0.100
635.900	20.387	0.100
636.000	4.258	0.100
636.100	20.120	0.100
636.200	2.063	0.100
636.300	7.866	0.100
636.400	20.396	0.100
636.500	14.927	0.100
636.600	11.592	0.100
636.700	2.267	0.100
636.800	-2.576	0.100
636.900	10.061	0.100
637.000	7.376	0.100
637.100	7.904	0.100
637.200	13.170	0.100
637.300	7.300	0.100
637.400	8.516	0.100
637.500	-8.040	0.100
637.600	13.118	0.100
637.700	13.255	0.100
637.800	-3.782	0.100
637.900	7.779	0.100
638.000	12.836	0.100
638.100	16.968	0.100
638.200	13.161	0.100
638.300	3.122	0.100
638.400	10.674	0.100
638.500	8.863	0.100
638.600	8.976	0.100
638.700	19.691	0.100
638.800	14.396	0.100
638.900	5.549	0.100
639.000	18.772	0.100
639.100	10.846	0.100
639.200	5.962	0.100
639.300	22.806	0.100
639.400	39.222	0.100
639.500	24.940	0.100
639.600	17.170	0.100
639.700	-0.596	0.100
639.800	35.667	0.100
639.900	-9.594	0.100
640.000	18.156	0.100
640.100	-2.637	0.100
640.200	14.407	0.100
640.300	24.428	0.100
640.400	20.818	0.100
640.500	14.760	0.100
640.600	12.275	0.100
640.700	10.216	0.100
640.800	25.837	0.100
640.900	23.822	0.100
641.000	6.167	0.100
641.100	21.493	0.100
641.200	18.750	0.100
641.300	22.617	0.100
641.400	3.944	0.100
641.500	43.242	0.100
641.600	14.122	0.100
641.700	17.474	0.100
641.800	20.858	0.100
641.900	17.722	0.100
642.000	11.587	0.100
642.100	27.002	0.100
642.200	25.467	0.100
642.300	9.238	0.100
642.400	14.771	0.100
642.500	11.346	0.100
642.600	22.923	0.100
642.700	31.450	0.100
642.800	10.525	0.100
642.900	13.130	0.099
643.000	23.525	0.100
643.100	36.272	0.100
643.200	10.339	0.100
643.300	22.470	0.100
643.400	19.887	0.100
643.500	38.240	0.100
643.600	35.120	0.100
643.700	24.295	0.100
643.800	25.921	0.100
643.900	11.810	0.100
644.000	39.273	0.100
644.100	34.035	0.100
644.200	12.546	0.100
644.300	58.976	0.100
644.400	37.673	0.100
644.500	52.106	0.100
644.600	30.817	0.100
644.700	22.245	0.100
644.800	25.923	0.100
644.900	57.945	0.100
645.000	32.727	0.100
645.100	21.437	0.100
645.200	23.463	0.100
645.300	33.997	0.100
645.400	36.403	0.100
645.500	37.550	0.100
645.600	35.249	0.100
645.700	25.715	0.100
645.800	27.761	0.100
645.900	49.337	0.100
646.000	41.471	0.100
646.100	47.035	0.100
646.200	30.474	0.100
646.300	34.643	0.100
646.400	43.284	0.100
646.500	30.974	0.100
646.600	25.713	0.100
646.700	29.226	0.100
646.800	37.926	0.100
646.900	42.856	0.100
647.000	40.039	0.100
647.100	44.794	0.100
647.200	17.205	0.100
647.300	38.951	0.100
647.400	35.406	0.100
647.500	48.083	0.100
647.600	38.812	0.100
647.700	44.083	0.100
647.800	26.810	0.100
647.900	32.944	0.100
648.000	31.399	0.100
648.100	20.864	0.100
648.200	27.084	0.100
648.300	40.606	0.100
648.400	43.265	0.100
648.500	34.594	0.100
648.600	32.883	0.100
648.700	44.879	0.100
648.800	44.976	0.100
648.900	40.097	0.100
649.000	38.785	0.100
649.100	57.891	0.100
649.200	43.564	0.100
649.300	32.615	0.100
649.400	40.489	0.100
649.500	35.158	0.100
649.600	50.287	0.100
649.700	42.576	0.100
649.800	44.533	0.100
649.900	30.643	0.100
650.000	34.705	0.100
650.100	52.674	0.100
650.200	41.258	0.100
650.300	45.780	0.100
650.400	37.003	0.100
650.500	36.824	0.100
650.600	43.715	0.100
650.700	43.500	0.100
650.800	28.841	0.100
650.900	31.570	0.100
651.000	35.374	0.100
651.100	33.248	0.100
651.200	46.447	0.100
651.300	38.067	0.100
651.400	39.390	0.100
651.500	50.674	0.100
651.600	36.584	0.100
651.700	45.360	0.100
651.800	37.184	0.100
651.900	34.852	0.100
652.000	48.117	0.100
652.100	43.599	0.100
652.200	42.186	0.100
652.300	44.728	0.100
652.400	38.007	0.100
652.500	46.836	0.100
652.600	23.995	0.100
652.700	37.710	0.100
652.800	41.633	0.100
652.900	30.768	0.100
653.000	43.315	0.100
653.100	19.394	0.100
653.200	48.315	0.100
653.300	46.850	0.100
653.400	46.200	0.100
653.500	34.587	0.100
653.600	57.055	0.100
653.700	44.387	0.100
653.800	47.559	0.100
653.900	40.534	0.100
654.000	32.662	0.100
654.100	37.686	0.100
654.200	25.451	0.100
654.300	40.515	0.100
654.400	39.828	0.100
654.500	49.670	0.100
654.600	33.947	0.100
654.700	42.197	0.100
654.800	49.223	0.100
654.900	41.359	0.100
655.000	38.600	0.100
655.100	39.248	0.100
655.200	43.780	0.100
655.300	36.861	0.100
655.400	37.569	0.100
655.500	40.224	0.100
655.600	39.114	0.100
655.700	28.491	0.100
655.800	51.856	0.100
655.900	32.426	0.100
656.000	30.360	0.100
656.100	36.935	0.100
656.200	33.822	0.100
656.300	34.115	0.100
656.400	50.764	0.100
656.500	38.443	0.100
656.600	40.392	0.100
656.700	18.254	0.100
656.800	40.783	0.100
656.900	52.611	0.100
657.000	41.105	0.100
657.100	33.827	0.100
657.200	46.365	0.100
657.300	44.906	0.100
657.400	22.790	0.100
657.500	41.126	0.100
657.600	22.595	0.100
657.700	39.583	0.100
657.800	26.716	0.100
657.900	39.322	0.100
658.000	50.179	0.100
658.100	45.117	0.100
658.200	28.932	0.100
658.300	36.929	0.100
658.400	49.006	0.100
658.500	34.081	0.100
658.600	57.714	0.100
658.700	48.159	0.100
658.800	32.791	0.100
658.900	37.566	0.100
659.000	31.860	0.100
659.100	56.382	0.100
659.200	34.208	0.100
659.300	41.539	0.100
659.400	26.978	0.100
659.500	49.334	0.100
659.600	36.606	0.100
659.700	35.867	0.100
659.800	43.069	0.100
659.900	35.572	0.100
660.000	46.747	0.100
660.100	36.459	0.100
660.200	39.103	0.100
660.300	55.923	0.100
660.400	49.197	0.100
660.500	41.592	0.100
660.600	34.884	0.100
660.700	55.859	0.100
660.800	50.372	0.100
660.900	37.282	0.100
661.000	45.434	0.100
661.100	42.413	0.100
661.200	43.890	0.100
661.300	41.991	0.100
661.400	50.216	0.100
661.500	41.064	0.100
661.600	35.210	0.100
661.700	38.845	0.100
661.800	50.971	0.100
661.900	37.160	0.100
662.000	61.313	0.100
662.100	37.202	0.100
662.200	28.958	0.100
662.300	45.521	0.100
662.400	35.830	0.100
662.500	57.883	0.100
662.600	48.309	0.100
662.700	43.932	0.100
662.800	49.186	0.100
662.900	49.063	0.100
663.000	32.118	0.100
663.100	35.285	0.100
663.200	23.429	0.100
663.300	49.935	0.100
663.400	41.012	0.100
663.500	32.061	0.100
663.600	45.083	0.100
663.700	46.966	0.100
663.800	39.708	0.100
663.900	23.597	0.100
664.000	57.464	0.100
664.100	37.732	0.100
664.200	41.146	0.100
664.300	40.809	0.100
664.400	33.676	0.100
664.500	42.320	0.100
664.600	41.265	0.100
664.700	21.163	0.100
664.800	36.762	0.100
664.900	46.777	0.100
665.000	32.235	0.100
665.100	39.274	0.100
665.200	55.706	0.100
665.300	48.348	0.100
665.400	35.738	0.100
665.500	44.502	0.100
665.600	29.207	0.100
665.700	45.706	0.100
665.800	40.617	0.100
665.900	32.324	0.100
666.000	42.062	0.100
666.100	55.844	0.100
666.200	41.057	0.100
666.300	31.607	0.100
666.400	54.367	0.100
666.500	36.879	0.100
666.600	30.514	0.100
666.700	53.154	0.100
666.800	29.278	0.100
666.900	53.010	0.100
667.000	34.541	0.100
667.100	31.267	0.100
667.200	36.947	0.100
667.300	47.604	0.100
667.400	39.159	0.100
667.500	48.552	0.100
667.600	40.167	0.100
667.700	50.841	0.100
667.800	56.450	0.100
667.900	38.662	0.100
668.000	34.462	0.100
668.100	54.952	0.100
668.200	39.372	0.100
668.300	47.782	0.100
668.400	39.370	0.100
668.500	36.805	0.100
668.600	45.598	0.100
668.700	38.107	0.100
668.800	36.100	0.100
668.900	43.858	0.100
669.000	27.591	0.100
669.100	57.970	0.100
669.200	22.430	0.100
669.300	40.765	0.100
669.400	43.789	0.100
669.500	38.755	0.100
669.600	28.210	0.100
669.700	32.606	0.100
669.800	43.418	0.100
669.900	42.642	0.100
670.000	44.135	0.100
670.100	46.883	0.100
670.200	60.844	0.100
670.300	45.528	0.100
670.400	13.466	0.100
670.500	36.913	0.100
670.600	37.905	0.100
670.700	44.673	0.100
670.800	43.027	0.100
670.900	24.269	0.100
671.000	37.748	0.100
671.100	34.698	0.100
671.200	43.994	0.100
671.300	41.597	0.100
671.400	26.281	0.100
671.500	52.735	0.100
671.600	31.348	0.100
671.700	15.969	0.100
671.800	48.957	0.100
671.900	59.658	0.100
672.000	33.711	0.100
672.100	57.916	0.100
672.200	28.571	0.100
672.300	32.983	0.100
672.400	43.274	0.100
672.500	49.694	0.100
672.600	44.510	0.100
672.700	36.284	0.100
672.800	24.410	0.100
672.900	52.005	0.100
673.000	29.262	0.100
673.100	48.456	0.100
673.200	32.525	0.100
673.300	55.735	0.100
673.400	35.634	0.100
673.500	26.858	0.100
673.600	45.546	0.100
673.700	45.050	0.100
673.800	38.907	0.100
673.900	51.346	0.100
674.000	36.019	0.100
674.100	43.966	0.100
674.200	33.899	0.100
674.300	44.023	0.100
674.400	32.382	0.100
674.500	33.894	0.100
674.600	44.058	0.100
674.700	38.611	0.100
674.800	37.088	0.100
674.900	28.619	0.100
675.000	61.337	0.100
675.100	35.659	0.100
675.200	53.885	0.100
675.300	44.959	0.100
675.400	40.917	0.100
675.500	44.257	0.100
675.600	50.463	0.100
675.700	38.125	0.100
675.800	48.536	0.100
675.900	38.480	0.100
676.000	27.726	0.100
676.100	25.535	0.100
676.200	51.320	0.100
676.300	38.787	0.100
676.400	43.529	0.100
676.500	57.613	0.100
676.600	43.975	0.100
676.700	32.752	0.100
676.800	53.472	0.100
676.900	36.404	0.100
677.000	26.645	0.100
677.100	36.629	0.100
677.200	47.152	0.100
677.300	46.060	0.100
677.400	46.853	0.100
677.500	54.454	0.100
677.600	29.159	0.100
677.700	30.506	0.100
677.800	55.282	0.100
677.900	58.522	0.100
678.000	41.544	0.100
678.100	40.577	0.100
678.200	44.981	0.100
678.300	44.100	0.100
678.400	34.892	0.100
678.500	40.358	0.100
678.600	44.403	0.100
678.700	45.657	0.100
678.800	41.823	0.100
678.900	26.312	0.100
679.000	21.141	0.100
679.100	39.787	0.100
679.200	50.637	0.100
679.300	65.076	0.100
679.400	31.452	0.100
679.500	22.751	0.100
679.600	64.514	0.100
679.700	34.358	0.100
679.800	45.611	0.100
679.900	54.729	0.100
680.000	28.289	0.100
680.100	41.239	0.100
680.200	37.612	0.100
680.300	43.469	0.100
680.400	45.406	0.100
680.500	44.340	0.100
680.600	40.006	0.100
680.700	45.699	0.100
680.800	44.157	0.100
680.900	42.422	0.100
681.000	41.321	0.100
681.100	28.641	0.100
681.200	51.328	0.100
681.300	21.299	0.100
681.400	38.000	0.100
681.500	42.399	0.100
681.600	53.606	0.100
681.700	24.252	0.100
681.800	33.713	0.100
681.900	43.805	0.100
682.000	43.267	0.100
682.100	49.258	0.100
682.200	30.494	0.100
682.300	44.449	0.100
682.400	34.080	0.100
682.500	39.287	0.100
682.600	50.734	0.100
682.700	47.442	0.100
682.800	46.314	0.100
682.900	32.156	0.100
683.000	52.689	0.100
683.100	40.801	0.100
683.200	37.838	0.100
683.300	35.289	0.100
683.400	37.102	0.100
683.500	31.929	0.100
683.600	48.814	0.100
683.700	45.548	0.100
683.800	36.335	0.100
683.900	56.903	0.100
684.000	43.617	0.100
684.100	28.060	0.100
684.200	29.400	0.100
684.300	58.071	0.100
684.400	31.126	0.100
684.500	40.269	0.100
684.600	31.447	0.100
684.700	46.833	0.100
684.800	50.259	0.100
684.900	58.256	0.100
685.000	41.910	0.100
685.100	46.803	0.100
685.200	47.410	0.100
685.300	37.211	0.100
685.400	35.010	0.100
685.500	40.030	0.100
685.600	38.716	0.100
685.700	51.897	0.100
685.800	27.339	0.100
685.900	38.320	0.100
686.000	40.548	0.100
686.100	27.161	0.100
686.200	39.418	0.100
686.300	34.441	0.100
686.400	41.640	0.100
686.500	30.503	0.100
686.600	38.261	0.100
686.700	50.874	0.100
686.800	45.657	0.100
686.900	43.545	0.100
687.000	54.798	0.100
687.100	43.876	0.100
687.200	45.464	0.100
687.300	45.522	0.100
687.400	33.706	0.100
687.500	43.734	0.100
687.600	31.637	0.100
687.700	40.110	0.100
687.800	30.867	0.100
687.900	48.167	0.100
688.000	39.313	0.100
688.100	39.824	0.100
688.200	48.786	0.100
688.300	29.731	0.100
688.400	41.077	0.100
688.500	38.790	0.100
688.600	39.029	0.100
688.700	38.042	0.100
688.800	45.326	0.100
688.900	47.015	0.100
689.000	31.866	0.100
689.100	40.288	0.100
689.200	19.453	0.100
689.300	48.021	0.100
689.400	43.903	0.100
689.500	31.015	0.100
689.600	38.500	0.100
689.700	59.165	0.100
689.800	39.031	0.100
689.900	51.822	0.100
690.000	35.290	0.100
690.100	56.135	0.100
690.200	21.403	0.100
690.300	36.188	0.100
690.400	37.398	0.100
690.500	48.255	0.100
690.600	40.156	0.100
690.700	34.654	0.100
690.800	14.397	0.100
690.900	24.850	0.100
691.000	44.690	0.100
691.100	30.537	0.100
691.200	29.956	0.100
691.300	28.880	0.100
691.400	18.318	0.100
691.500	23.989	0.100
691.600	8.733	0.100
691.700	22.571	0.100
691.800	30.193	0.100
691.900	22.197	0.100
692.000	13.749	0.100
692.100	14.907	0.100
692.200	17.648	0.100
692.300	19.634	0.100
692.400	8.030	0.100
692.500	2.422	0.100
692.600	-1.808	0.100
692.700	5.685	0.100
692.800	9.775	0.100
692.900	10.410	0.100
693.000	5.433	0.100
693.100	14.460	0.100
693.200	24.324	0.100
693.300	-10.107	0.100
693.400	7.355	0.100
693.500	17.009	0.100
693.600	7.589	0.100
693.700	-2.906	0.100
693.800	-13.793	0.100
693.900	19.557	0.100
694.000	17.220	0.100
694.100	5.509	0.100
694.200	2.870	0.100
694.300	8.531	0.100
694.400	-4.759	0.100
694.500	-15.202	0.100
694.600	15.442	0.100
694.700	-15.302	0.100
694.800	1.594	0.100
694.900	-4.809	0.100
695.000	13.262	0.100
695.100	-2.022	0.100
695.200	3.831	0.100
695.300	-4.081	0.100
695.400	-5.422	0.100
695.500	-12.496	0.100
695.600	5.206	0.100
695.700	7.596	0.100
695.800	-1.982	0.100
695.900	-2.085	0.100
696.000	0.871	0.100
696.100	-1.665	0.100
696.200	7.144	0.100
696.300	-10.033	0.100
696.400	-17.615	0.100
696.500	-0.983	0.100
696.600	-6.055	0.100
696.700	-2.766	0.100
696.800	-2.018	0.100
696.900	4.750	0.100
697.000	13.013	0.100
697.100	1.498	0.100
697.200	-17.082	0.100
697.300	20.468	0.100
697.400	-7.887	0.100
697.500	-9.555	0.100
697.600	-25.533	0.100
697.700	8.736	0.100
697.800	9.597	0.100
697.900	-8.757	0.100
698.000	23.509	0.100
698.100	7.675	0.100
698.200	6.244	0.100
698.300	2.581	0.100
698.400	-1.054	0.100
698.500	-2.511	0.100
698.600	-1.549	0.100
698.700	-2.549	0.100
698.800	4.339	0.100
698.900	-1.407	0.100
699.000	-20.223	0.100
699.100	15.916	0.100
699.200	9.360	0.100
699.300	3.645	0.100
699.400	0.292	0.100
699.500	2.476	0.100
699.600	-6.718	0.100
699.700	-4.934	0.100
699.800	18.440	0.100
699.900	-2.615	0.100
700.000	6.095	0.100
700.100	-20.695	0.100
700.200	-4.537	0.100
700.300	-6.828	0.100
700.400	-2.257	0.100
700.500	-9.939	0.100
700.600	-3.291	0.100
700.700	-2.456	0.100
700.800	12.913	0.100
700.900	11.073	0.100
701.000	-15.967	0.100
701.100	6.940	0.100
701.200	-1.071	0.100
701.300	-6.206	0.100
701.400	-4.841	0.100
701.500	-25.362	0.100
701.600	-5.785	0.100
701.700	-5.069	0.100
701.800	-5.279	0.100
701.900	-5.965	0.100
702.000	0.154	0.100
702.100	-0.704	0.100
702.200	-3.810	0.100
702.300	-11.707	0.100
702.400	2.207	0.100
702.500	0.872	0.100
702.600	-4.283	0.100
702.700	-13.048	0.100
702.800	5.305	0.100
702.900	-12.705	0.100
703.000	11.639	0.100
703.100	-4.578	0.100
703.200	-14.228	0.100
703.300	13.730	0.100
703.400	-0.464	0.100
703.500	-8.810	0.100
703.600	7.564	0.100
703.700	-11.113	0.100
703.800	-1.551	0.100
703.900	-15.800	0.100
704.000	-10.626	0.100
704.100	-5.371	0.100
704.200	3.392	0.100
704.300	-1.510	0.100
704.400	-3.853	0.100
704.500	-0.212	0.100
704.600	-12.721	0.100
704.700	9.112	0.100
704.800	-2.930	0.100
704.900	-4.829	0.100
705.000	9.959	0.100
705.100	5.837	0.100
705.200	1.048	0.100
705.300	-17.454	0.100
705.400	-15.907	0.100
705.500	-11.139	0.100
705.600	-13.362	0.100
705.700	-12.833	0.100
705.800	-6.476	0.100
705.900	5.884	0.100
706.000	-18.815	0.100
706.100	-16.646	0.100
706.200	4.295	0.100
706.300	4.023	0.100
706.400	-20.335	0.100
706.500	-13.333	0.100
706.600	-17.536	0.100
706.700	-9.781	0.100
706.800	-15.116	0.100
706.900	-6.727	0.100
707.000	7.917	0.100
707.100	4.482	0.100
707.200	-5.828	0.100
707.300	-12.044	0.100
707.400	-2.896	0.100
707.500	-4.433	0.100
707.600	-8.006	0.100
707.700	1.161	0.100
707.800	-23.815	0.100
707.900	10.758	0.100
708.000	-18.001	0.100
708.100	5.480	0.100
708.200	-0.179	0.100
708.300	-23.118	0.100
708.400	-29.026	0.100
708.500	-5.942	0.100
708.600	-8.243	0.100
708.700	-2.222	0.100
708.800	0.600	0.100
708.900	-3.039	0.100
709.000	-14.032	0.100
709.100	-23.269	0.100
709.200	-17.152	0.100
709.300	-6.849	0.100
709.400	-2.696	0.100
709.500	-10.486	0.100
709.600	-25.067	0.100
709.700	-10.079	0.100
709.800	0.328	0.100
709.900	-7.376	0.100
710.000	-12.574	0.100
710.100	-19.413	0.100
710.200	5.392	0.100
710.300	-8.073	0.100
710.400	-13.214	0.100
710.500	-1.259	0.100
710.600	-0.555	0.100
710.700	-13.119	0.100
710.800	-18.489	0.100
710.900	-19.175	0.100
711.000	-11.943	0.100
711.100	-2.410	0.100
711.200	-20.042	0.100
711.300	-13.033	0.100
711.400	-2.463	0.100
711.500	-0.980	0.100
711.600	-27.686	0.100
711.700	-21.310	0.100
711.800	-11.256	0.100
711.900	-12.565	0.100
712.000	-7.549	0.100
712.100	12.185	0.100
712.200	-26.031	0.100
712.300	-5.019	0.100
712.400	-10.571	0.100
712.500	-3.097	0.100
712.600	-19.309	0.100
712.700	-18.157	0.100
712.800	-4.681	0.100
712.900	-13.527	0.100
713.000	-23.184	0.100
713.100	-12.844	0.100
713.200	-4.841	0.100
713.300	5.725	0.100
713.400	-11.734	0.100
713.500	-18.679	0.100
713.600	-16.318	0.100
713.700	2.390	0.100
713.800	-15.956	0.100
713.900	-8.244	0.100
714.000	4.426	0.100
714.100	-7.786	0.100
714.200	-17.469	0.100
714.300	-14.505	0.100
714.400	-23.539	0.100
714.500	-28.724	0.100
714.600	0.527	0.099
714.700	-21.119	0.100
714.800	-5.585	0.100
714.900	-2.529	0.100
715.000	-1.455	0.100
715.100	-1.199	0.100
715.200	-11.406	0.100
715.300	-14.051	0.100
715.400	-11.328	0.100
715.500	-22.572	0.100
715.600	-18.303	0.100
715.700	-9.369	0.100
715.800	-16.357	0.100
715.900	-13.726	0.100
716.000	-23.413	0.100
716.100	-7.095	0.100
716.200	0.780	0.100
716.300	-12.653	0.100
716.400	-16.458	0.100
716.500	-10.733	0.100
716.600	-19.871	0.100
716.700	-13.461	0.100
716.800	-22.070	0.100
716.900	-21.123	0.100
717.000	-16.733	0.100
717.100	-13.196	0.100
717.200	-10.228	0.100
717.300	-22.560	0.100
717.400	-8.515	0.100
717.500	-9.388	0.100
717.600	-10.201	0.100
717.700	-10.797	0.100
717.800	-27.706	0.100
717.900	-4.507	0.100
718.000	-20.914	0.100
718.100	-17.022	0.100
718.200	-19.509	0.100
718.300	-1.694	0.100
718.400	-17.075	0.100
718.500	-16.227	0.100
718.600	-5.633	0.100
718.700	-24.158	0.100
718.800	-4.854	0.100
718.900	-23.443	0.100
719.000	-13.927	0.100
719.100	-13.604	0.100
719.200	-9.212	0.100
719.300	-20.458	0.100
719.400	-10.749	0.100
719.500	-29.396	0.100
719.600	-4.994	0.100
719.700	-6.305	0.100
719.800	-22.105	0.099
719.900	-2.996	0.100
720.000	-13.011	0.100
720.100	-10.367	0.100
720.200	-18.724	0.100
720.300	3.072	0.100
720.400	-15.325	0.099
720.500	-11.716	0.100
720.600	-11.482	0.100
720.700	-36.783	0.100
720.800	-17.528	0.100
720.900	-11.089	0.100
721.000	-4.084	0.100
721.100	-21.441	0.100
721.200	-25.422	0.100
721.300	-15.631	0.100
721.400	-13.331	0.100
721.500	-3.698	0.100
721.600	-8.187	0.100
721.700	-23.763	0.100
721.800	7.299	0.100
721.900	-8.205	0.100
722.000	-20.324	0.100
722.100	-12.705	0.100
722.200	-21.000	0.100
722.300	-12.329	0.100
722.400	-6.285	0.100
722.500	-16.383	0.100
722.600	-12.283	0.100
722.700	-9.905	0.100
722.800	-16.151	0.100
722.900	-5.292	0.100
723.000	-28.129	0.100
723.100	-26.741	0.100
723.200	-14.176	0.100
723.300	-1.818	0.100
723.400	-11.406	0.100
723.500	4.563	0.100
723.600	-17.284	0.100
723.700	-29.246	0.100
723.800	-21.097	0.100
723.900	-18.292	0.100
724.000	-8.093	0.100
724.100	-16.188	0.100
724.200	-3.575	0.100
724.300	-22.605	0.100
724.400	-6.766	0.100
724.500	-10.560	0.100
724.600	-5.647	0.100
724.700	-37.080	0.100
724.800	-11.414	0.100
724.900	-35.808	0.100
725.000	-12.533	0.100
725.100	-13.790	0.100
725.200	8.027	0.100
725.300	-26.503	0.100
725.400	-13.331	0.100
725.500	-18.706	0.100
725.600	-14.452	0.100
725.700	-40.173	0.100
725.800	-10.337	0.099
725.900	-16.882	0.100
726.000	-8.282	0.100
726.100	-6.893	0.100
726.200	-6.614	0.100
726.300	-6.278	0.100
726.400	-10.058	0.100
726.500	-14.328	0.099
726.600	-20.699	0.100
726.700	-23.199	0.100
726.800	-28.998	0.100
726.900	-2.343	0.100
727.000	-15.281	0.100
727.100	-14.160	0.100
727.200	-26.525	0.100
727.300	-8.298	0.100
727.400	-9.819	0.099
727.500	-20.189	0.100
727.600	-8.355	0.100
727.700	-18.452	0.100
727.800	-16.827	0.100
727.900	-4.716	0.100
728.000	-18.122	0.100
728.100	-12.152	0.100
728.200	-27.282	0.100
728.300	-17.504	0.100
728.400	-6.006	0.100
728.500	-12.297	0.100
728.600	-16.930	0.100
728.700	-20.784	0.100
728.800	-13.631	0.100
728.900	-3.438	0.100
729.000	-28.018	0.100
729.100	-9.873	0.100
729.200	-13.279	0.100
729.300	-15.113	0.100
729.400	-21.597	0.099
729.500	-7.571	0.100
729.600	-7.054	0.100
729.700	-4.421	0.100
729.800	-16.675	0.100
729.900	-27.391	0.100
730.000	-8.731	0.100
730.100	-14.177	0.100
730.200	-13.561	0.100
730.300	-18.852	0.100
730.400	-22.360	0.100
730.500	-11.061	0.100
730.600	-21.105	0.100
730.700	-19.534	0.100
730.800	2.704	0.100
730.900	-10.722	0.100
731.000	-17.490	0.100
731.100	-18.610	0.100
731.200	-9.326	0.100
731.300	-13.554	0.100
731.400	1.970	0.100
731.500	-13.754	0.099
731.600	-25.616	0.100
731.700	-6.243	0.100
731.800	-9.414	0.099
731.900	-10.696	0.100
732.000	-14.891	0.100
732.100	-25.394	0.100
732.200	-9.273	0.100
732.300	-29.291	0.100
732.400	-3.444	0.100
732.500	-20.346	0.100
732.600	-11.057	0.100
732.700	-9.435	0.100
732.800	-6.592	0.100
732.900	-15.490	0.100
733.000	-11.100	0.100
733.100	-25.588	0.100
733.200	-3.567	0.100
733.300	-13.471	0.100
733.400	-9.975	0.100
733.500	-16.900	0.100
733.600	-5.333	0.100
733.700	-23.584	0.100
733.800	-21.757	0.100
733.900	-1.380	0.100
734.000	-14.174	0.100
734.100	-21.735	0.100
734.200	-2.618	0.100
734.300	-24.105	0.100
734.400	-25.082	0.100
734.500	-25.827	0.100
734.600	-16.711	0.100
734.700	-20.953	0.100
734.800	-11.622	0.100
734.900	-9.823	0.100
735.000	-7.545	0.099
735.100	-17.667	0.100
735.200	-13.317	0.100
735.300	-18.330	0.100
735.400	-29.182	0.100
735.500	5.835	0.100
735.600	-14.428	0.100
735.700	-17.330	0.100
735.800	-8.257	0.100
735.900	-12.117	0.100
736.000	-25.971	0.100
736.100	-12.697	0.100
736.200	-25.448	0.100
736.300	-16.888	0.100
736.400	-12.091	0.100
736.500	-2.276	0.100
736.600	-4.606	0.100
736.700	-28.203	0.100
736.800	4.320	0.100
736.900	-15.338	0.100
737.000	-23.510	0.100
737.100	-2.584	0.100
737.200	-0.961	0.100
737.300	-11.235	0.100
737.400	-24.895	0.100
737.500	-6.718	0.100
737.600	-20.447	0.100
737.700	-18.346	0.100
737.800	-4.000	0.100
737.900	-8.317	0.100
738.000	-13.758	0.100
738.100	-24.176	0.100
738.200	-29.093	0.100
738.300	-12.890	0.100
738.400	-6.046	0.100
738.500	0.687	0.100
738.600	-8.850	0.100
738.700	-16.467	0.100
738.800	-19.014	0.100
738.900	-20.271	0.100
739.000	-23.858	0.100
739.100	8.976	0.100
739.200	-5.455	0.100
739.300	-24.819	0.100
739.400	-28.221	0.100
739.500	-6.987	0.100
739.600	-9.488	0.100
739.700	-6.255	0.100
739.800	-12.389	0.100
739.900	-17.851	0.100
740.000	-7.085	0.100
740.100	-11.007	0.100
740.200	-17.021	0.100
740.300	-14.497	0.100
740.400	-4.281	0.100
740.500	-22.265	0.100
740.600	-33.877	0.100
740.700	2.601	0.100
740.800	-24.909	0.100
740.900	-8.446	0.100
741.000	-17.137	0.100
741.100	-18.838	0.100
741.200	-21.258	0.100
741.300	-26.373	0.100
741.400	-10.837	0.100
741.500	-8.857	0.100
741.600	-34.085	0.100
741.700	-12.449	0.100
741.800	-12.408	0.100
741.900	-14.930	0.100
742.000	-9.545	0.100
742.100	-25.816	0.100
742.200	-10.524	0.100
742.300	-6.253	0.100
742.400	-14.692	0.100
742.500	-25.276	0.100
742.600	-23.491	0.100
742.700	0.439	0.100
742.800	-18.509	0.100
742.900	-10.458	0.100
743.000	-9.101	0.100
743.100	-18.819	0.100
743.200	-14.028	0.100
743.300	-23.870	0.100
743.400	-8.855	0.100
743.500	2.523	0.100
743.600	-8.320	0.100
743.700	-28.226	0.100
743.800	-5.650	0.100
743.900	-8.672	0.100
744.000	-20.258	0.100
744.100	-41.199	0.100
744.200	-5.801	0.100
744.300	-27.972	0.100
744.400	-3.332	0.100
744.500	-18.790	0.100
744.600	-14.016	0.100
744.700	-19.104	0.100
744.800	-21.447	0.100
744.900	-18.137	0.100
745.000	2.980	0.100
745.100	-13.636	0.100
745.200	-13.214	0.100
745.300	-5.594	0.100
745.400	0.473	0.100
745.500	-27.115	0.100
745.600	-17.684	0.100
745.700	-8.510	0.100
745.800	-24.200	0.100
745.900	10.297	0.100
746.000	-25.988	0.100
746.100	-10.972	0.100
746.200	-32.158	0.100
746.300	-10.963	0.100
746.400	-24.453	0.100
746.500	-17.194	0.099
746.600	-19.093	0.100
746.700	-6.736	0.100
746.800	-19.390	0.100
746.900	-5.080	0.100
747.000	-26.000	0.099
747.100	-9.514	0.100
747.200	-25.642	0.100
747.300	-4.256	0.100
747.400	-17.730	0.100
747.500	-20.520	0.100
747.600	-11.937	0.100
747.700	-15.167	0.100
747.800	-18.119	0.100
747.900	-26.855	0.100
748.000	-4.928	0.100
748.100	-11.119	0.100
748.200	-34.281	0.100
748.300	-1.369	0.100
748.400	-25.092	0.100
748.500	-0.561	0.100
748.600	-2.864	0.100
748.700	-14.153	0.100
748.800	-12.774	0.100
748.900	-11.550	0.100
749.000	-17.711	0.100
749.100	-14.052	0.100
749.200	-33.992	0.100
749.300	-11.519	0.100
749.400	9.921	0.100
749.500	-27.620	0.100
749.600	-18.977	0.100
749.700	-4.113	0.100
749.800	-13.251	0.100
749.900	-13.382	0.100
750.000	-4.505	0.100
750.100	-11.506	0.100
750.200	-15.495	0.100
750.300	-18.325	0.100
750.400	-11.233	0.100
750.500	-16.497	0.100
750.600	-25.961	0.100
750.700	-17.468	0.100
750.800	-16.885	0.100
750.900	-5.315	0.100
751.000	-20.971	0.100
751.100	-28.899	0.100
751.200	-16.484	0.100
751.300	-13.599	0.100
751.400	-6.862	0.100
751.500	-20.699	0.100
751.600	-23.268	0.100
751.700	-24.068	0.100
751.800	-2.964	0.100
751.900	-8.784	0.100
752.000	-15.755	0.100
752.100	-13.288	0.100
752.200	-19.562	0.100
752.300	-22.152	0.100
752.400	-13.055	0.100
752.500	-12.616	0.100
752.600	-14.730	0.100
752.700	-16.046	0.100
752.800	-8.952	0.100
752.900	-20.249	0.100
753.000	-11.605	0.100
753.100	-20.308	0.100
753.200	-12.826	0.100
753.300	-17.162	0.100
753.400	-11.814	0.100
753.500	-17.143	0.100
753.600	-11.560	0.100
753.700	-17.688	0.100
753.800	-17.046	0.100
753.900	-16.839	0.100
754.000	0.832	0.100
754.100	-11.617	0.100
754.200	-18.192	0.100
754.300	-24.283	0.100
754.400	-1.267	0.100
754.500	-13.362	0.100
754.600	-26.048	0.100
754.700	-24.425	0.100
754.800	1.855	0.100
754.900	-31.774	0.100
755.000	-15.636	0.100
755.100	-20.532	0.100
755.200	-4.067	0.100
755.300	-13.571	0.100
755.400	-12.483	0.100
755.500	-12.535	0.100
755.600	-21.179	0.100
755.700	-8.167	0.100
755.800	-16.618	0.100
755.900	-14.785	0.100
756.000	-8.687	0.100
756.100	-14.158	0.100
756.200	-5.990	0.100
756.300	-15.508	0.100
756.400	-6.852	0.100
756.500	-23.447	0.100
756.600	-21.349	0.100
756.700	-4.434	0.100
756.800	-24.498	0.100
756.900	-15.592	0.100
757.000	-21.330	0.100
757.100	-12.511	0.100
757.200	-12.700	0.100
757.300	-11.054	0.100
757.400	-18.109	0.100
757.500	4.394	0.100
757.600	-25.477	0.100
757.700	-10.048	0.100
757.800	-22.199	0.100
757.900	-8.192	0.100
758.000	-11.655	0.100
758.100	-23.161	0.100
758.200	-9.895	0.100
758.300	-3.300	0.100
758.400	-9.828	0.100
758.500	-26.791	0.100
758.600	-4.962	0.100
758.700	-30.342	0.100
758.800	-15.253	0.100
758.900	-21.808	0.100
759.000	-9.220	0.100
759.100	-9.684	0.100
759.200	-9.830	0.100
759.300	-20.083	0.100
759.400	-25.102	0.100
759.500	-9.951	0.100
759.600	-23.476	0.100
759.700	-20.351	0.100
759.800	-17.216	0.100
759.900	-23.761	0.100
760.000	-13.543	0.100
760.100	-20.335	0.100
760.200	-20.097	0.100
760.300	-12.097	0.100
760.400	-30.289	0.100
760.500	-35.969	0.100
760.600	-7.555	0.100
760.700	-3.416	0.100
760.800	-19.809	0.100
760.900	-21.112	0.100
761.000	-0.341	0.100
761.100	-18.612	0.100
761.200	-11.090	0.100
761.300	-11.308	0.100
761.400	-25.084	0.100
761.500	-27.304	0.099
761.600	-2.169	0.100
761.700	-16.469	0.100
761.800	-31.186	0.100
761.900	-13.249	0.100
762.000	14.795	0.100
762.100	-13.913	0.100
762.200	-8.863	0.100
762.300	-22.169	0.100
762.400	-11.298	0.100
762.500	-21.990	0.100
762.600	-6.464	0.100
762.700	-13.073	0.100
762.800	-13.429	0.100
762.900	-27.145	0.100
763.000	-7.661	0.100
763.100	-8.635	0.100
763.200	-22.170	0.100
763.300	-7.308	0.100
763.400	-20.769	0.100
763.500	-5.357	0.100
763.600	-17.235	0.100
763.700	-18.393	0.100
763.800	-21.459	0.100
763.900	-14.239	0.100
764.000	-24.976	0.100
764.100	-6.417	0.100
764.200	-14.708	0.100
764.300	-4.872	0.100
764.400	-30.878	0.100
764.500	-29.968	0.100
764.600	10.420	0.100
764.700	-11.791	0.100
764.800	-26.666	0.100
764.900	-17.893	0.100
765.000	-41.817	0.100
765.100	-12.973	0.100
765.200	-9.515	0.100
765.300	-34.803	0.100
765.400	-22.763	0.100
765.500	-9.793	0.100
765.600	-10.606	0.100
765.700	-34.284	0.100
765.800	-13.342	0.100
765.900	-12.359	0.100
766.000	-4.660	0.100
766.100	-25.235	0.100
766.200	-19.588	0.100
766.300	-7.940	0.100
766.400	-20.078	0.100
766.500	-29.478	0.100
766.600	-16.036	0.100
766.700	-9.139	0.100
766.800	-24.373	0.100
766.900	-16.282	0.100
767.000	-26.271	0.100
767.100	-11.587	0.100
767.200	-26.170	0.100
767.300	-12.393	0.100
767.400	-3.504	0.100
767.500	-15.960	0.100
767.600	-11.205	0.100
767.700	-16.467	0.100
767.800	-4.438	0.100
767.900	-19.335	0.100
768.000	-30.100	0.100
768.100	-22.190	0.100
768.200	-8.876	0.100
768.300	-7.132	0.100
768.400	-15.014	0.100
768.500	-16.416	0.100
768.600	-30.888	0.100
768.700	5.362	0.100
768.800	-6.999	0.100
768.900	-9.767	0.100
769.000	-23.753	0.100
769.100	-23.132	0.100
769.200	-26.183	0.100
769.300	-28.901	0.100
769.400	-24.867	0.100
769.500	-16.183	0.100
769.600	4.374	0.100
769.700	-15.368	0.100
769.800	-16.301	0.100
769.900	-26.657	0.100
770.000	-13.568	0.100
770.100	-4.450	0.100
770.200	-12.055	0.100
770.300	-9.086	0.100
770.400	-30.725	0.100
770.500	-8.497	0.100
770.600	-19.515	0.100
770.700	-26.188	0.100
770.800	-9.583	0.100
770.900	-16.453	0.100
771.000	-24.649	0.100
771.100	-26.616	0.100
771.200	-10.802	0.100
771.300	-18.368	0.100
771.400	-34.524	0.100
771.500	-15.828	0.100
771.600	-31.835	0.100
771.700	-9.922	0.100
771.800	-19.421	0.100
771.900	-9.167	0.100
772.000	-17.775	0.100
772.100	-21.137	0.100
772.200	-17.379	0.100
772.300	-5.119	0.100
772.400	-21.163	0.100
772.500	-10.804	0.100
772.600	-22.476	0.099
772.700	-14.935	0.100
772.800	-8.311	0.100
772.900	-14.452	0.100
773.000	-25.523	0.100
773.100	-8.485	0.100
773.200	-1.637	0.100
773.300	-12.114	0.100
773.400	-18.739	0.100
773.500	-21.000	0.100
773.600	-30.826	0.100
773.700	-0.340	0.100
773.800	-6.089	0.100
773.900	-3.300	0.100
774.000	-6.623	0.100
774.100	-26.448	0.100
774.200	-9.490	0.100
774.300	-20.555	0.100
774.400	-29.803	0.100
774.500	-24.471	0.100
774.600	2.814	0.100
774.700	-10.324	0.100
774.800	-15.143	0.100
774.900	-29.777	0.100
775.000	-25.518	0.100
775.100	-22.193	0.100
775.200	-8.936	0.100
775.300	-27.394	0.100
775.400	-14.140	0.100
775.500	-8.667	0.100
775.600	-15.806	0.100
775.700	-18.904	0.100
775.800	-3.321	0.100
775.900	-29.384	0.100
776.000	-20.552	0.100
776.100	-12.955	0.100
776.200	-9.331	0.100
776.300	-4.038	0.100
776.400	-45.965	0.100
776.500	1.257	0.100
776.600	-26.381	0.100
776.700	-22.527	0.100
776.800	-10.689	0.100
776.900	-12.695	0.100
777.000	-18.119	0.100
777.100	-30.179	0.100
777.200	-15.057	0.100
777.300	-7.222	0.100
777.400	-14.193	0.100
777.500	-8.656	0.100
777.600	-18.468	0.100
777.700	-21.532	0.100
777.800	-26.577	0.100
777.900	-20.947	0.100
778.000	-13.987	0.100
778.100	-15.034	0.100
778.200	-5.984	0.100
778.300	-16.960	0.100
778.400	-19.638	0.100
778.500	-12.266	0.100
778.600	-18.725	0.100
778.700	-31.737	0.100
778.800	-27.344	0.100
778.900	-10.875	0.100
779.000	-15.190	0.100
779.100	-18.878	0.100
779.200	-22.049	0.100
779.300	-7.492	0.100
779.400	-7.310	0.100
779.500	-11.170	0.100
779.600	-28.007	0.100
779.700	-7.919	0.100
779.800	-5.529	0.100
779.900	-32.923	0.100
780.000	-8.410	0.100
780.100	-20.195	0.100
780.200	-15.138	0.100
780.300	-29.444	0.100
780.400	-8.803	0.100
780.500	-8.586	0.100
780.600	-15.455	0.100
780.700	-10.082	0.100
780.800	-27.028	0.100
780.900	-28.853	0.100
781.000	-5.566	0.100
781.100	-14.905	0.100
781.200	6.526	0.100
781.300	2.047	0.100
781.400	2.971	0.100
781.500	18.036	0.100
781.600	3.650	0.100
781.700	-4.527	0.100
781.800	13.724	0.100
781.900	8.131	0.100
782.000	-0.247	0.100
782.100	-0.496	0.100
782.200	18.781	0.100
782.300	4.603	0.100
782.400	-2.359	0.100
782.500	9.253	0.100
782.600	25.329	0.100
782.700	2.853	0.100
782.800	-0.865	0.100
782.900	29.180	0.100
783.000	23.946	0.100
783.100	8.448	0.100
783.200	-3.649	0.099
783.300	12.829	0.100
783.400	31.345	0.100
783.500	17.379	0.100
783.600	6.679	0.100
783.700	-1.395	0.100
783.800	6.583	0.100
783.900	10.738	0.100
784.000	3.536	0.100
784.100	9.196	0.100
784.200	20.507	0.100
784.300	16.889	0.100
784.400	10.234	0.100
784.500	-1.001	0.100
784.600	17.976	0.100
784.700	10.786	0.100
784.800	12.472	0.100
784.900	10.523	0.100
785.000	-3.465	0.100
785.100	-0.751	0.100
785.200	15.121	0.100
785.300	12.409	0.100
785.400	10.717	0.100
785.500	8.448	0.100
785.600	5.636	0.100
785.700	9.188	0.100
785.800	10.210	0.100
785.900	-8.582	0.100
786.000	10.113	0.100
786.100	14.883	0.100
786.200	-12.556	0.100
786.300	27.005	0.100
786.400	7.353	0.100
786.500	12.991	0.100
786.600	-0.126	0.100
786.700	-13.867	0.100
786.800	9.237	0.100
786.900	2.903	0.100
787.000	20.652	0.100
787.100	6.818	0.100
787.200	19.015	0.100
787.300	-8.448	0.100
787.400	6.133	0.099
787.500	1.453	0.100
787.600	18.648	0.100
787.700	4.914	0.100
787.800	-5.087	0.100
787.900	0.172	0.100
788.000	6.231	0.100
788.100	-3.551	0.099
788.200	-0.133	0.100
788.300	12.212	0.100
788.400	16.349	0.100
788.500	10.473	0.100
788.600	2.728	0.100
788.700	16.249	0.100
788.800	29.674	0.100
788.900	7.238	0.100
789.000	11.534	0.100
789.100	10.862	0.100
789.200	16.870	0.100
789.300	9.166	0.100
789.400	2.493	0.100
789.500	14.338	0.100
789.600	-6.965	0.100
789.700	14.949	0.100
789.800	0.091	0.100
789.900	13.906	0.100
790.000	12.993	0.100
790.100	9.428	0.100
790.200	23.538	0.100
790.300	-5.741	0.100
790.400	31.909	0.100
790.500	17.818	0.100
790.600	13.564	0.100
790.700	16.175	0.100
790.800	21.725	0.099
790.900	1.453	0.100
791.000	8.484	0.100
791.100	9.470	0.100
791.200	13.400	0.100
791.300	15.265	0.100
791.400	17.475	0.100
791.500	23.665	0.100
791.600	14.616	0.100
791.700	9.948	0.100
791.800	15.412	0.100
791.900	21.120	0.100
792.000	18.960	0.100
792.100	11.508	0.100
792.200	28.968	0.100
792.300	24.623	0.100
792.400	26.823	0.100
792.500	30.162	0.100
792.600	14.528	0.100
792.700	16.312	0.100
792.800	7.413	0.100
792.900	18.794	0.100
793.000	32.063	0.100
793.100	31.105	0.100
793.200	23.385	0.100
793.300	25.637	0.100
793.400	20.422	0.100
793.500	26.592	0.100
793.600	25.205	0.100
793.700	20.191	0.100
793.800	23.566	0.100
793.900	10.963	0.100
794.000	28.250	0.100
794.100	15.643	0.100
794.200	34.683	0.100
794.300	11.535	0.100
794.400	37.132	0.100
794.500	22.883	0.100
794.600	38.247	0.100
794.700	16.789	0.100
794.800	40.801	0.100
794.900	28.839	0.100
795.000	29.161	0.100
795.100	22.465	0.100
795.200	29.013	0.100
795.300	31.833	0.100
795.400	38.705	0.100
795.500	16.788	0.100
795.600	43.517	0.100
795.700	33.949	0.100
795.800	37.410	0.100
795.900	33.966	0.100
796.000	20.369	0.100
796.100	45.487	0.100
796.200	47.757	0.100
796.300	25.378	0.100
796.400	25.022	0.100
796.500	32.283	0.100
796.600	44.720	0.100
796.700	34.548	0.100
796.800	32.718	0.100
796.900	39.176	0.100
797.000	31.308	0.100
797.100	16.851	0.100
797.200	18.180	0.100
797.300	38.437	0.100
797.400	29.958	0.100
797.500	34.100	0.100
797.600	31.615	0.100
797.700	37.416	0.100
797.800	36.520	0.100
797.900	39.880	0.100
798.000	43.744	0.100
798.100	28.217	0.100
798.200	30.550	0.100
798.300	40.881	0.100
798.400	57.045	0.100
798.500	30.386	0.100
798.600	40.262	0.100
798.700	28.257	0.100
798.800	34.470	0.100
798.900	37.088	0.100
799.000	17.997	0.100
799.100	40.374	0.100
799.200	29.847	0.100
799.300	45.252	0.100
799.400	40.000	0.100
799.500	32.345	0.100
799.600	38.457	0.100
799.700	35.782	0.100
799.800	33.984	0.100
799.900	55.446	0.100
800.000	44.357	0.100
